# Object name: IRAS_07069-1045
# Instrument: FIFI-LS
# z: 0.00005500
# Ref. Wav.: 118.58100000
# Area aperture: 0.00000 degs
"wavelength","flux","eflux","uflux","exposure","atran"
1.182029e+02        nan 0.000000e+00 0.000000e+00 9.216000e+01 9.375452e-01
1.182177e+02        nan 0.000000e+00 0.000000e+00 9.216000e+01 9.350714e-01
1.182324e+02        nan 0.000000e+00 0.000000e+00 2.764800e+02 9.321246e-01
1.182472e+02 -1.860626e-01 1.221599e-01 -2.216202e-01 2.764800e+02 9.289193e-01
1.182619e+02 -2.128232e-01 1.058634e-01 -1.687820e-01 3.379200e+02 9.257978e-01
1.182767e+02 2.660233e-01 9.538916e-02 3.036277e-01 3.379200e+02 9.231461e-01
1.182914e+02 7.428279e-01 8.659498e-02 7.589398e-01 5.222400e+02 9.212635e-01
1.183062e+02 1.090865e+00 7.994460e-02 1.047749e+00 5.222400e+02 9.202379e-01
1.183209e+02 1.042932e+00 7.396648e-02 9.625673e-01 6.144000e+02 9.199022e-01
1.183357e+02 8.261332e-01 6.905342e-02 7.537146e-01 7.987200e+02 9.199080e-01
1.183504e+02 6.312236e-01 6.525691e-02 5.851619e-01 7.987200e+02 9.198944e-01
1.183652e+02 5.135228e-01 6.211129e-02 4.789399e-01 8.908800e+02 9.196669e-01
1.183799e+02 4.602280e-01 5.981722e-02 4.376541e-01 8.908800e+02 9.192898e-01
1.183947e+02 4.792622e-01 5.840534e-02 4.605842e-01 8.908800e+02 9.190409e-01
1.184094e+02 5.494625e-01 5.706318e-02 5.263983e-01 8.908800e+02 9.192566e-01
1.184242e+02 5.467439e-01 5.642224e-02 5.180206e-01 8.908800e+02 9.201525e-01
1.184389e+02 5.000627e-01 5.549084e-02 4.649377e-01 8.908800e+02 9.217150e-01
1.184537e+02 4.645460e-01 5.483265e-02 4.414389e-01 8.908800e+02 9.237070e-01
1.184684e+02 5.035651e-01 5.396075e-02 4.933345e-01 8.908800e+02 9.257663e-01
1.184832e+02 5.907582e-01 5.333308e-02 5.775686e-01 8.908800e+02 9.275193e-01
1.184979e+02 6.638357e-01 5.275141e-02 6.491347e-01 8.908800e+02 9.286326e-01
1.185127e+02 7.570546e-01 5.222307e-02 7.314977e-01 8.908800e+02 9.287766e-01
1.185274e+02 7.774968e-01 5.182800e-02 7.423410e-01 8.908800e+02 9.275254e-01
1.185422e+02 7.167543e-01 5.172209e-02 6.704426e-01 8.908800e+02 9.242792e-01
1.185569e+02 6.360684e-01 5.152243e-02 6.049041e-01 8.908800e+02 9.183210e-01
1.185717e+02 6.609687e-01 5.175852e-02 6.289046e-01 8.908800e+02 9.090588e-01
1.185864e+02 7.198977e-01 5.229298e-02 6.719642e-01 8.908800e+02 8.964269e-01
1.186012e+02 7.409233e-01 5.311349e-02 6.677291e-01 8.908800e+02 8.813002e-01
1.186159e+02 7.100456e-01 5.408692e-02 6.351533e-01 8.908800e+02 8.656484e-01
1.186307e+02 7.159422e-01 5.497992e-02 6.262615e-01 8.908800e+02 8.522187e-01
1.186454e+02 6.748439e-01 5.548004e-02 5.776499e-01 8.908800e+02 8.437356e-01
1.186602e+02 5.904924e-01 5.604501e-02 5.047344e-01 8.908800e+02 8.418671e-01
1.186749e+02 5.208269e-01 5.596883e-02 4.427519e-01 8.908800e+02 8.464715e-01
1.186897e+02 4.930827e-01 5.581330e-02 4.376181e-01 8.908800e+02 8.554930e-01
1.187044e+02 5.117158e-01 5.576268e-02 4.550181e-01 8.908800e+02 8.656301e-01
1.187192e+02 5.211122e-01 5.571472e-02 4.641195e-01 8.908800e+02 8.735366e-01
1.187339e+02 5.254293e-01 5.615517e-02 4.698549e-01 8.908800e+02 8.770138e-01
1.187487e+02 5.627680e-01 5.671336e-02 5.244691e-01 8.908800e+02 8.757619e-01
1.187634e+02 6.905537e-01 5.772325e-02 6.269517e-01 8.908800e+02 8.713829e-01
1.187782e+02 7.302033e-01 5.884565e-02 6.600131e-01 8.908800e+02 8.666961e-01
1.187929e+02 6.159343e-01 6.022101e-02 5.280568e-01 8.908800e+02 8.646390e-01
1.188077e+02 5.044224e-01 6.200963e-02 4.559427e-01 8.908800e+02 8.671947e-01
1.188224e+02 6.222068e-01 6.413406e-02 5.897760e-01 7.987200e+02 8.747751e-01
1.188372e+02 8.709401e-01 6.662236e-02 8.178706e-01 7.987200e+02 8.862484e-01
1.188519e+02 9.929991e-01 6.938477e-02 9.335770e-01 6.144000e+02 8.995420e-01
1.188667e+02 9.956372e-01 7.256008e-02 9.370565e-01 6.144000e+02 9.124584e-01
1.188814e+02 9.440653e-01 7.664507e-02 8.935048e-01 5.529600e+02 9.233305e-01
1.188962e+02 9.186908e-01 8.221747e-02 8.819717e-01 5.529600e+02 9.312886e-01
1.189109e+02 6.858567e-01 8.964947e-02 6.129173e-01 3.686400e+02 9.361384e-01
1.189257e+02 6.702603e-02 1.002136e-01 -2.952377e-02 3.686400e+02 9.380481e-01
1.189404e+02 -5.274338e-01 1.167595e-01 -5.352757e-01 2.764800e+02 9.372339e-01
1.189552e+02        nan 0.000000e+00 0.000000e+00 2.764800e+02 9.338203e-01
1.189699e+02        nan 0.000000e+00 0.000000e+00 9.216000e+01 9.279263e-01
