# Object name: IRAS_07069-1045
# Instrument: FIFI-LS
# z: 0.00005500
# Ref. Wav.: 118.58100000
# Area aperture: 0.00000 degs
"wavelength","flux","eflux","uflux","exposure","atran"
1.182029e+02        nan 0.000000e+00 0.000000e+00 6.144000e+01 9.375452e-01
1.182177e+02        nan 0.000000e+00 0.000000e+00 6.144000e+01 9.350714e-01
1.182324e+02 3.631893e-01 1.337737e-01 2.275282e-01 2.150400e+02 9.321246e-01
1.182472e+02 -3.101490e-01 1.098420e-01 -3.292445e-01 2.150400e+02 9.289193e-01
1.182619e+02 -4.132535e-01 9.561253e-02 -3.784377e-01 2.457600e+02 9.257978e-01
1.182767e+02 -1.064270e-01 8.563978e-02 -6.150607e-02 2.457600e+02 9.231461e-01
1.182914e+02 3.380139e-01 7.772716e-02 3.736419e-01 3.993600e+02 9.212635e-01
1.183062e+02 7.241917e-01 7.237963e-02 7.087917e-01 3.993600e+02 9.202379e-01
1.183209e+02 7.237337e-01 6.640487e-02 6.788029e-01 4.608000e+02 9.199022e-01
1.183357e+02 5.245108e-01 6.241863e-02 4.760995e-01 6.144000e+02 9.199080e-01
1.183504e+02 3.654900e-01 5.868837e-02 3.341592e-01 6.144000e+02 9.198944e-01
1.183652e+02 3.026146e-01 5.603416e-02 2.865082e-01 6.758400e+02 9.196669e-01
1.183799e+02 2.877601e-01 5.404523e-02 2.700543e-01 6.758400e+02 9.192898e-01
1.183947e+02 2.569122e-01 5.244983e-02 2.431118e-01 6.758400e+02 9.190409e-01
1.184094e+02 2.745664e-01 5.137751e-02 2.665143e-01 6.758400e+02 9.192566e-01
1.184242e+02 3.009567e-01 5.064375e-02 2.947969e-01 6.758400e+02 9.201525e-01
1.184389e+02 3.327242e-01 4.983917e-02 3.156029e-01 6.758400e+02 9.217150e-01
1.184537e+02 3.000482e-01 4.917952e-02 2.791346e-01 6.758400e+02 9.237070e-01
1.184684e+02 2.907136e-01 4.846166e-02 2.794215e-01 6.758400e+02 9.257663e-01
1.184832e+02 3.199066e-01 4.787341e-02 3.127469e-01 6.758400e+02 9.275193e-01
1.184979e+02 4.120317e-01 4.736794e-02 4.126093e-01 6.758400e+02 9.286326e-01
1.185127e+02 5.053306e-01 4.698417e-02 4.959740e-01 6.758400e+02 9.287766e-01
1.185274e+02 5.597200e-01 4.664075e-02 5.335524e-01 6.758400e+02 9.275254e-01
1.185422e+02 5.543490e-01 4.647291e-02 5.194076e-01 6.758400e+02 9.242792e-01
1.185569e+02 5.335259e-01 4.629784e-02 5.107708e-01 6.758400e+02 9.183210e-01
1.185717e+02 5.472815e-01 4.652447e-02 5.176893e-01 6.758400e+02 9.090588e-01
1.185864e+02 5.545069e-01 4.698646e-02 5.103685e-01 6.758400e+02 8.964269e-01
1.186012e+02 4.940156e-01 4.767233e-02 4.425889e-01 6.758400e+02 8.813002e-01
1.186159e+02 4.500941e-01 4.864332e-02 3.993905e-01 6.758400e+02 8.656484e-01
1.186307e+02 4.740685e-01 4.929239e-02 4.204679e-01 6.758400e+02 8.522187e-01
1.186454e+02 4.956236e-01 4.997097e-02 4.355621e-01 6.758400e+02 8.437356e-01
1.186602e+02 4.676155e-01 5.031033e-02 4.032433e-01 6.758400e+02 8.418671e-01
1.186749e+02 4.093790e-01 5.023483e-02 3.522052e-01 6.758400e+02 8.464715e-01
1.186897e+02 4.188541e-01 5.015607e-02 3.799349e-01 6.758400e+02 8.554930e-01
1.187044e+02 4.955630e-01 4.996272e-02 4.511991e-01 6.758400e+02 8.656301e-01
1.187192e+02 5.138590e-01 5.001754e-02 4.612062e-01 6.758400e+02 8.735366e-01
1.187339e+02 4.497991e-01 5.040807e-02 3.948476e-01 6.758400e+02 8.770138e-01
1.187487e+02 3.905140e-01 5.097578e-02 3.546276e-01 6.758400e+02 8.757619e-01
1.187634e+02 4.479220e-01 5.191563e-02 4.045387e-01 6.758400e+02 8.713829e-01
1.187782e+02 4.539056e-01 5.292773e-02 3.976940e-01 6.758400e+02 8.666961e-01
1.187929e+02 3.322231e-01 5.429807e-02 2.836631e-01 6.758400e+02 8.646390e-01
1.188077e+02 2.354434e-01 5.588833e-02 2.152804e-01 6.758400e+02 8.671947e-01
1.188224e+02 3.401899e-01 5.767516e-02 3.291388e-01 6.144000e+02 8.747751e-01
1.188372e+02 5.397937e-01 5.980526e-02 5.127113e-01 6.144000e+02 8.862484e-01
1.188519e+02 6.654220e-01 6.225960e-02 6.266064e-01 4.608000e+02 8.995420e-01
1.188667e+02 7.346699e-01 6.532453e-02 7.080134e-01 4.608000e+02 9.124584e-01
1.188814e+02 8.150603e-01 6.929125e-02 7.857389e-01 4.300800e+02 9.233305e-01
1.188962e+02 8.344995e-01 7.393401e-02 7.944273e-01 4.300800e+02 9.312886e-01
1.189109e+02 6.050666e-01 8.080292e-02 5.340911e-01 2.764800e+02 9.361384e-01
1.189257e+02 4.281868e-02 9.004573e-02 -2.930861e-02 2.764800e+02 9.380481e-01
1.189404e+02 -4.487493e-01 1.046633e-01 -4.442504e-01 2.150400e+02 9.372339e-01
1.189552e+02        nan 0.000000e+00 0.000000e+00 2.150400e+02 9.338203e-01
1.189699e+02        nan 0.000000e+00 0.000000e+00 6.144000e+01 9.279263e-01
