# Object name: IRAS_07069-1045
# Instrument: FIFI-LS
# z: 0.00005500
# Ref. Wav.: 118.58100000
# Area aperture: 0.00000 degs
"wavelength","flux","eflux","uflux","exposure","atran"
1.182029e+02        nan 0.000000e+00 0.000000e+00 6.144000e+01 9.375452e-01
1.182177e+02        nan 0.000000e+00 0.000000e+00 6.144000e+01 9.350714e-01
1.182324e+02        nan 0.000000e+00 0.000000e+00 1.843200e+02 9.321246e-01
1.182472e+02        nan 0.000000e+00 0.000000e+00 1.843200e+02 9.289193e-01
1.182619e+02 -2.585091e-01 9.936195e-02 -2.309347e-01 2.457600e+02 9.257978e-01
1.182767e+02 -1.438937e-01 8.925722e-02 -1.280699e-01 2.457600e+02 9.231461e-01
1.182914e+02 -1.056099e-01 8.050200e-02 -9.324359e-02 3.686400e+02 9.212635e-01
1.183062e+02 -4.841469e-02 7.432230e-02 -2.426035e-02 3.686400e+02 9.202379e-01
1.183209e+02 9.095081e-02 6.888939e-02 9.978856e-02 4.300800e+02 9.199022e-01
1.183357e+02 2.740291e-01 6.458680e-02 2.690683e-01 5.529600e+02 9.199080e-01
1.183504e+02 2.529266e-01 6.107022e-02 2.246924e-01 5.529600e+02 9.198944e-01
1.183652e+02 1.247549e-01 5.814733e-02 1.097586e-01 6.144000e+02 9.196669e-01
1.183799e+02 9.282480e-02 5.576525e-02 8.701377e-02 6.144000e+02 9.192898e-01
1.183947e+02 1.293028e-01 5.389026e-02 1.230453e-01 6.144000e+02 9.190409e-01
1.184094e+02 8.009912e-02 5.236603e-02 6.035261e-02 6.144000e+02 9.192566e-01
1.184242e+02 -3.075104e-02 5.141070e-02 -3.198160e-02 6.144000e+02 9.201525e-01
1.184389e+02 1.858485e-02 5.050384e-02 3.745496e-02 6.144000e+02 9.217150e-01
1.184537e+02 2.179426e-01 4.990537e-02 2.352447e-01 6.144000e+02 9.237070e-01
1.184684e+02 3.743443e-01 4.939152e-02 3.702865e-01 6.144000e+02 9.257663e-01
1.184832e+02 4.019485e-01 4.887389e-02 3.829119e-01 6.144000e+02 9.275193e-01
1.184979e+02 3.067317e-01 4.836154e-02 2.817908e-01 6.144000e+02 9.286326e-01
1.185127e+02 2.076738e-01 4.797175e-02 1.914473e-01 6.144000e+02 9.287766e-01
1.185274e+02 1.668533e-01 4.753772e-02 1.753595e-01 6.144000e+02 9.275254e-01
1.185422e+02 2.321467e-01 4.726807e-02 2.332015e-01 6.144000e+02 9.242792e-01
1.185569e+02 2.845032e-01 4.710024e-02 2.682833e-01 6.144000e+02 9.183210e-01
1.185717e+02 2.996880e-01 4.718689e-02 2.807843e-01 6.144000e+02 9.090588e-01
1.185864e+02 3.234806e-01 4.767588e-02 3.040622e-01 6.144000e+02 8.964269e-01
1.186012e+02 2.899759e-01 4.834998e-02 2.448127e-01 6.144000e+02 8.813002e-01
1.186159e+02 1.323382e-01 4.923041e-02 1.016694e-01 6.144000e+02 8.656484e-01
1.186307e+02 9.940276e-02 5.003959e-02 1.026384e-01 6.144000e+02 8.522187e-01
1.186454e+02 3.013213e-01 5.033759e-02 2.780209e-01 6.144000e+02 8.437356e-01
1.186602e+02 4.606197e-01 5.069435e-02 4.137815e-01 6.144000e+02 8.418671e-01
1.186749e+02 4.754468e-01 5.054355e-02 4.127779e-01 6.144000e+02 8.464715e-01
1.186897e+02 4.174613e-01 5.027157e-02 3.500510e-01 6.144000e+02 8.554930e-01
1.187044e+02 2.517500e-01 5.030033e-02 1.990329e-01 6.144000e+02 8.656301e-01
1.187192e+02 6.042228e-02 5.016249e-02 4.639275e-02 6.144000e+02 8.735366e-01
1.187339e+02 6.554876e-02 5.055852e-02 8.013200e-02 6.144000e+02 8.770138e-01
1.187487e+02 2.171067e-01 5.102633e-02 2.125057e-01 6.144000e+02 8.757619e-01
1.187634e+02 3.181512e-01 5.175723e-02 2.855008e-01 6.144000e+02 8.713829e-01
1.187782e+02 3.262199e-01 5.269854e-02 2.970015e-01 6.144000e+02 8.666961e-01
1.187929e+02 4.237855e-01 5.377314e-02 4.003905e-01 6.144000e+02 8.646390e-01
1.188077e+02 5.066254e-01 5.503683e-02 4.502548e-01 6.144000e+02 8.671947e-01
1.188224e+02 3.772162e-01 5.696282e-02 3.202888e-01 5.529600e+02 8.747751e-01
1.188372e+02 2.873496e-01 5.891268e-02 2.618461e-01 5.529600e+02 8.862484e-01
1.188519e+02 3.346273e-01 6.140331e-02 3.201082e-01 4.300800e+02 8.995420e-01
1.188667e+02 3.670836e-01 6.422382e-02 3.412495e-01 4.300800e+02 9.124584e-01
1.188814e+02 3.193813e-01 6.806811e-02 2.834980e-01 3.686400e+02 9.233305e-01
1.188962e+02 3.246378e-01 7.228257e-02 3.139019e-01 3.686400e+02 9.312886e-01
1.189109e+02 3.058879e-01 7.890126e-02 2.762312e-01 2.457600e+02 9.361384e-01
1.189257e+02 -5.074970e-02 8.689454e-02 -1.269883e-01 2.457600e+02 9.380481e-01
1.189404e+02 -6.768117e-01 1.000327e-01 0.000000e+00 1.843200e+02 9.372339e-01
1.189552e+02        nan 0.000000e+00 0.000000e+00 1.843200e+02 9.338203e-01
1.189699e+02        nan 0.000000e+00 0.000000e+00 6.144000e+01 9.279263e-01
