# Object name: IRAS_07069-1045
# Instrument: FIFI-LS
# z: 0.00005500
# Ref. Wav.: 118.58100000
# Area aperture: 0.00000 degs
"wavelength","flux","eflux","uflux","exposure","atran"
1.182029e+02        nan 0.000000e+00 0.000000e+00 9.216000e+01 9.375452e-01
1.182177e+02        nan 0.000000e+00 0.000000e+00 9.216000e+01 9.350714e-01
1.182324e+02        nan 0.000000e+00 0.000000e+00 2.150400e+02 9.321246e-01
1.182472e+02 4.886656e-01 1.018197e-01 4.626645e-01 2.150400e+02 9.289193e-01
1.182619e+02 4.275885e-01 8.775845e-02 3.935644e-01 2.764800e+02 9.257978e-01
1.182767e+02 3.355735e-01 7.876930e-02 2.997826e-01 2.764800e+02 9.231461e-01
1.182914e+02 2.246515e-01 7.112120e-02 2.105707e-01 3.993600e+02 9.212635e-01
1.183062e+02 2.566118e-01 6.575602e-02 2.485323e-01 3.993600e+02 9.202379e-01
1.183209e+02 4.034934e-01 6.098309e-02 4.063904e-01 4.915200e+02 9.199022e-01
1.183357e+02 5.575603e-01 5.715659e-02 5.436325e-01 6.144000e+02 9.199080e-01
1.183504e+02 5.388088e-01 5.393110e-02 5.044673e-01 6.144000e+02 9.198944e-01
1.183652e+02 4.618099e-01 5.132512e-02 4.282238e-01 7.065600e+02 9.196669e-01
1.183799e+02 4.828148e-01 4.928548e-02 4.671348e-01 7.065600e+02 9.192898e-01
1.183947e+02 5.825745e-01 4.765627e-02 5.514075e-01 7.065600e+02 9.190409e-01
1.184094e+02 5.207471e-01 4.638301e-02 4.786253e-01 7.065600e+02 9.192566e-01
1.184242e+02 3.858172e-01 4.554808e-02 3.530510e-01 7.065600e+02 9.201525e-01
1.184389e+02 3.812212e-01 4.479305e-02 3.759392e-01 7.065600e+02 9.217150e-01
1.184537e+02 5.495483e-01 4.420745e-02 5.457699e-01 7.065600e+02 9.237070e-01
1.184684e+02 6.792048e-01 4.370193e-02 6.594561e-01 7.065600e+02 9.257663e-01
1.184832e+02 7.247077e-01 4.332864e-02 6.949548e-01 7.065600e+02 9.275193e-01
1.184979e+02 6.931009e-01 4.283150e-02 6.602030e-01 7.065600e+02 9.286326e-01
1.185127e+02 6.128015e-01 4.252681e-02 5.722638e-01 7.065600e+02 9.287766e-01
1.185274e+02 4.905026e-01 4.207902e-02 4.589978e-01 7.065600e+02 9.275254e-01
1.185422e+02 4.368429e-01 4.180654e-02 4.154164e-01 7.065600e+02 9.242792e-01
1.185569e+02 4.492101e-01 4.177506e-02 4.320834e-01 7.065600e+02 9.183210e-01
1.185717e+02 5.114476e-01 4.180726e-02 4.859709e-01 7.065600e+02 9.090588e-01
1.185864e+02 5.595002e-01 4.221459e-02 5.177246e-01 7.065600e+02 8.964269e-01
1.186012e+02 5.305142e-01 4.288940e-02 4.730369e-01 7.065600e+02 8.813002e-01
1.186159e+02 4.721183e-01 4.362979e-02 4.235363e-01 7.065600e+02 8.656484e-01
1.186307e+02 5.088059e-01 4.433960e-02 4.634697e-01 7.065600e+02 8.522187e-01
1.186454e+02 6.180269e-01 4.470234e-02 5.514970e-01 7.065600e+02 8.437356e-01
1.186602e+02 6.647200e-01 4.492070e-02 5.746006e-01 7.065600e+02 8.418671e-01
1.186749e+02 6.903919e-01 4.482215e-02 6.077492e-01 7.065600e+02 8.464715e-01
1.186897e+02 7.600805e-01 4.465947e-02 6.721939e-01 7.065600e+02 8.554930e-01
1.187044e+02 7.388377e-01 4.464886e-02 6.429408e-01 7.065600e+02 8.656301e-01
1.187192e+02 6.052300e-01 4.467864e-02 5.406369e-01 7.065600e+02 8.735366e-01
1.187339e+02 5.572084e-01 4.485314e-02 5.105950e-01 7.065600e+02 8.770138e-01
1.187487e+02 6.370701e-01 4.533430e-02 5.859775e-01 7.065600e+02 8.757619e-01
1.187634e+02 6.900419e-01 4.603435e-02 6.216035e-01 7.065600e+02 8.713829e-01
1.187782e+02 6.705538e-01 4.675809e-02 5.988576e-01 7.065600e+02 8.666961e-01
1.187929e+02 6.913544e-01 4.790671e-02 6.238053e-01 7.065600e+02 8.646390e-01
1.188077e+02 6.365235e-01 4.903722e-02 5.630935e-01 7.065600e+02 8.671947e-01
1.188224e+02 4.490962e-01 5.075807e-02 3.845238e-01 6.144000e+02 8.747751e-01
1.188372e+02 3.817834e-01 5.264533e-02 3.526448e-01 6.144000e+02 8.862484e-01
1.188519e+02 4.742799e-01 5.493282e-02 4.469989e-01 4.915200e+02 8.995420e-01
1.188667e+02 5.162015e-01 5.755554e-02 4.738485e-01 4.915200e+02 9.124584e-01
1.188814e+02 4.346146e-01 6.080872e-02 4.139049e-01 4.300800e+02 9.233305e-01
1.188962e+02 4.577864e-01 6.479877e-02 4.513773e-01 4.300800e+02 9.312886e-01
1.189109e+02 4.818405e-01 7.038809e-02 4.651034e-01 3.072000e+02 9.361384e-01
1.189257e+02 2.437110e-01 7.754662e-02 1.878082e-01 3.072000e+02 9.380481e-01
1.189404e+02 -1.783600e-01 8.936084e-02 -2.205908e-01 2.150400e+02 9.372339e-01
1.189552e+02        nan 0.000000e+00 0.000000e+00 2.150400e+02 9.338203e-01
1.189699e+02        nan 0.000000e+00 0.000000e+00 9.216000e+01 9.279263e-01
