# Object name: IRAS_07069-1045
# Instrument: FIFI-LS
# z: 0.00005500
# Ref. Wav.: 118.58100000
# Area aperture: 0.00000 degs
"wavelength","flux","eflux","uflux","exposure","atran"
1.182029e+02        nan 0.000000e+00 0.000000e+00 6.144000e+01 9.375452e-01
1.182177e+02        nan 0.000000e+00 0.000000e+00 6.144000e+01 9.350714e-01
1.182324e+02        nan 0.000000e+00 0.000000e+00 1.843200e+02 9.321246e-01
1.182472e+02        nan 0.000000e+00 0.000000e+00 1.843200e+02 9.289193e-01
1.182619e+02 1.084069e-01 9.913958e-02 1.154851e-01 2.150400e+02 9.257978e-01
1.182767e+02 1.755529e-01 8.842606e-02 1.781910e-01 2.150400e+02 9.231461e-01
1.182914e+02 1.722431e-01 8.013282e-02 1.656382e-01 3.379200e+02 9.212635e-01
1.183062e+02 1.560227e-01 7.404627e-02 1.558140e-01 3.379200e+02 9.202379e-01
1.183209e+02 2.660768e-01 6.843751e-02 2.671523e-01 3.993600e+02 9.199022e-01
1.183357e+02 4.122890e-01 6.445183e-02 3.946322e-01 5.222400e+02 9.199080e-01
1.183504e+02 3.528413e-01 6.088436e-02 3.188996e-01 5.222400e+02 9.198944e-01
1.183652e+02 2.262034e-01 5.792878e-02 2.066123e-01 5.836800e+02 9.196669e-01
1.183799e+02 2.755435e-01 5.571548e-02 2.747310e-01 5.836800e+02 9.192898e-01
1.183947e+02 3.832842e-01 5.374398e-02 3.720240e-01 5.836800e+02 9.190409e-01
1.184094e+02 3.431095e-01 5.245235e-02 3.177074e-01 5.836800e+02 9.192566e-01
1.184242e+02 2.619468e-01 5.135745e-02 2.445895e-01 5.836800e+02 9.201525e-01
1.184389e+02 3.163463e-01 5.059324e-02 3.137836e-01 5.836800e+02 9.217150e-01
1.184537e+02 4.804058e-01 4.995370e-02 4.814444e-01 5.836800e+02 9.237070e-01
1.184684e+02 5.642510e-01 4.943148e-02 5.424745e-01 5.836800e+02 9.257663e-01
1.184832e+02 5.335567e-01 4.897683e-02 5.022786e-01 5.836800e+02 9.275193e-01
1.184979e+02 4.493729e-01 4.845979e-02 4.130982e-01 5.836800e+02 9.286326e-01
1.185127e+02 3.491398e-01 4.806125e-02 3.299769e-01 5.836800e+02 9.287766e-01
1.185274e+02 2.750344e-01 4.762468e-02 2.600852e-01 5.836800e+02 9.275254e-01
1.185422e+02 2.445238e-01 4.727754e-02 2.324989e-01 5.836800e+02 9.242792e-01
1.185569e+02 2.443274e-01 4.713781e-02 2.361285e-01 5.836800e+02 9.183210e-01
1.185717e+02 3.241903e-01 4.719751e-02 3.204945e-01 5.836800e+02 9.090588e-01
1.185864e+02 4.481486e-01 4.776556e-02 4.216083e-01 5.836800e+02 8.964269e-01
1.186012e+02 4.356088e-01 4.837907e-02 3.865039e-01 5.836800e+02 8.813002e-01
1.186159e+02 2.889651e-01 4.935053e-02 2.495791e-01 5.836800e+02 8.656484e-01
1.186307e+02 2.353249e-01 4.994011e-02 2.155032e-01 5.836800e+02 8.522187e-01
1.186454e+02 4.148485e-01 5.051163e-02 3.817830e-01 5.836800e+02 8.437356e-01
1.186602e+02 6.163301e-01 5.080388e-02 5.538297e-01 5.836800e+02 8.418671e-01
1.186749e+02 7.234600e-01 5.060751e-02 6.424152e-01 5.836800e+02 8.464715e-01
1.186897e+02 7.734158e-01 5.047167e-02 6.783292e-01 5.836800e+02 8.554930e-01
1.187044e+02 6.831435e-01 5.031336e-02 5.873254e-01 5.836800e+02 8.656301e-01
1.187192e+02 5.268059e-01 5.037783e-02 4.628767e-01 5.836800e+02 8.735366e-01
1.187339e+02 4.859143e-01 5.052962e-02 4.472629e-01 5.836800e+02 8.770138e-01
1.187487e+02 5.922506e-01 5.111020e-02 5.519197e-01 5.836800e+02 8.757619e-01
1.187634e+02 5.990088e-01 5.188875e-02 5.364195e-01 5.836800e+02 8.713829e-01
1.187782e+02 4.655994e-01 5.287968e-02 4.006192e-01 5.836800e+02 8.666961e-01
1.187929e+02 3.700130e-01 5.415160e-02 3.278955e-01 5.836800e+02 8.646390e-01
1.188077e+02 3.721636e-01 5.555846e-02 3.290109e-01 5.836800e+02 8.671947e-01
1.188224e+02 3.460679e-01 5.745980e-02 3.058088e-01 5.222400e+02 8.747751e-01
1.188372e+02 3.437504e-01 5.946521e-02 3.126374e-01 5.222400e+02 8.862484e-01
1.188519e+02 3.381333e-01 6.192830e-02 3.141606e-01 3.993600e+02 8.995420e-01
1.188667e+02 3.121645e-01 6.489472e-02 2.986635e-01 3.993600e+02 9.124584e-01
1.188814e+02 2.743596e-01 6.858544e-02 2.667050e-01 3.686400e+02 9.233305e-01
1.188962e+02 2.749847e-01 7.305550e-02 2.659237e-01 3.686400e+02 9.312886e-01
1.189109e+02 2.706930e-01 7.941190e-02 2.334024e-01 2.457600e+02 9.361384e-01
1.189257e+02 6.158835e-02 8.759836e-02 9.013243e-03 2.457600e+02 9.380481e-01
1.189404e+02 -2.629509e-01 1.008044e-01 0.000000e+00 1.843200e+02 9.372339e-01
1.189552e+02        nan 0.000000e+00 0.000000e+00 1.843200e+02 9.338203e-01
1.189699e+02        nan 0.000000e+00 0.000000e+00 6.144000e+01 9.279263e-01
