# Object name: IRAS_07069-1045
# Instrument: FIFI-LS
# z: 0.00005500
# Ref. Wav.: 118.58100000
# Area aperture: 0.00000 degs
"wavelength","flux","eflux","uflux","exposure","atran"
1.182029e+02        nan 0.000000e+00 0.000000e+00 6.144000e+01 9.375452e-01
1.182177e+02        nan 0.000000e+00 0.000000e+00 6.144000e+01 9.350714e-01
1.182324e+02        nan 0.000000e+00 0.000000e+00 2.150400e+02 9.321246e-01
1.182472e+02 5.620597e-01 1.043828e-01 5.268152e-01 2.150400e+02 9.289193e-01
1.182619e+02 4.715469e-01 9.051994e-02 4.438562e-01 2.457600e+02 9.257978e-01
1.182767e+02 3.879669e-01 8.126183e-02 3.560376e-01 2.457600e+02 9.231461e-01
1.182914e+02 3.104731e-01 7.334444e-02 2.874908e-01 3.993600e+02 9.212635e-01
1.183062e+02 2.910279e-01 6.796893e-02 2.818167e-01 3.993600e+02 9.202379e-01
1.183209e+02 4.291700e-01 6.295110e-02 4.358390e-01 4.608000e+02 9.199022e-01
1.183357e+02 5.526155e-01 5.901354e-02 5.250912e-01 6.144000e+02 9.199080e-01
1.183504e+02 4.908331e-01 5.581726e-02 4.473590e-01 6.144000e+02 9.198944e-01
1.183652e+02 3.926495e-01 5.308577e-02 3.736143e-01 6.758400e+02 9.196669e-01
1.183799e+02 4.605557e-01 5.112146e-02 4.559030e-01 6.758400e+02 9.192898e-01
1.183947e+02 5.729401e-01 4.935268e-02 5.407570e-01 6.758400e+02 9.190409e-01
1.184094e+02 4.868313e-01 4.816269e-02 4.427725e-01 6.758400e+02 9.192566e-01
1.184242e+02 3.611912e-01 4.722483e-02 3.354005e-01 6.758400e+02 9.201525e-01
1.184389e+02 4.030994e-01 4.652746e-02 3.940813e-01 6.758400e+02 9.217150e-01
1.184537e+02 5.435698e-01 4.593258e-02 5.349982e-01 6.758400e+02 9.237070e-01
1.184684e+02 6.371359e-01 4.534242e-02 6.142756e-01 6.758400e+02 9.257663e-01
1.184832e+02 6.366677e-01 4.498602e-02 6.079483e-01 6.758400e+02 9.275193e-01
1.184979e+02 6.298455e-01 4.447400e-02 6.005050e-01 6.758400e+02 9.286326e-01
1.185127e+02 6.004182e-01 4.412405e-02 5.705407e-01 6.758400e+02 9.287766e-01
1.185274e+02 5.100315e-01 4.370285e-02 4.733716e-01 6.758400e+02 9.275254e-01
1.185422e+02 4.066383e-01 4.343382e-02 3.772816e-01 6.758400e+02 9.242792e-01
1.185569e+02 3.535465e-01 4.329002e-02 3.386560e-01 6.758400e+02 9.183210e-01
1.185717e+02 4.045077e-01 4.336276e-02 3.910364e-01 6.758400e+02 9.090588e-01
1.185864e+02 5.091841e-01 4.386667e-02 4.806696e-01 6.758400e+02 8.964269e-01
1.186012e+02 5.156908e-01 4.443987e-02 4.663161e-01 6.758400e+02 8.813002e-01
1.186159e+02 4.673618e-01 4.525265e-02 4.140403e-01 6.758400e+02 8.656484e-01
1.186307e+02 4.846560e-01 4.597707e-02 4.300382e-01 6.758400e+02 8.522187e-01
1.186454e+02 5.679839e-01 4.634262e-02 5.028386e-01 6.758400e+02 8.437356e-01
1.186602e+02 6.103231e-01 4.673224e-02 5.378747e-01 6.758400e+02 8.418671e-01
1.186749e+02 6.639962e-01 4.657223e-02 5.920292e-01 6.758400e+02 8.464715e-01
1.186897e+02 7.591970e-01 4.643757e-02 6.782197e-01 6.758400e+02 8.554930e-01
1.187044e+02 8.051077e-01 4.628599e-02 7.182819e-01 6.758400e+02 8.656301e-01
1.187192e+02 7.227028e-01 4.633478e-02 6.364940e-01 6.758400e+02 8.735366e-01
1.187339e+02 6.378820e-01 4.667379e-02 5.813878e-01 6.758400e+02 8.770138e-01
1.187487e+02 6.893576e-01 4.704411e-02 6.297540e-01 6.758400e+02 8.757619e-01
1.187634e+02 7.078539e-01 4.790088e-02 6.273068e-01 6.758400e+02 8.713829e-01
1.187782e+02 5.707871e-01 4.874912e-02 5.016206e-01 6.758400e+02 8.666961e-01
1.187929e+02 4.259862e-01 4.991163e-02 3.707222e-01 6.758400e+02 8.646390e-01
1.188077e+02 3.419139e-01 5.118316e-02 3.020986e-01 6.758400e+02 8.671947e-01
1.188224e+02 3.030648e-01 5.287719e-02 2.730152e-01 6.144000e+02 8.747751e-01
1.188372e+02 3.166608e-01 5.487930e-02 2.899563e-01 6.144000e+02 8.862484e-01
1.188519e+02 3.303036e-01 5.711486e-02 3.044517e-01 4.608000e+02 8.995420e-01
1.188667e+02 3.118600e-01 5.995524e-02 2.956829e-01 4.608000e+02 9.124584e-01
1.188814e+02 3.077121e-01 6.341919e-02 2.887507e-01 4.300800e+02 9.233305e-01
1.188962e+02 3.345219e-01 6.779736e-02 3.383999e-01 4.300800e+02 9.312886e-01
1.189109e+02 3.313963e-01 7.370247e-02 2.957522e-01 2.764800e+02 9.361384e-01
1.189257e+02 1.198527e-01 8.174187e-02 7.670156e-02 2.764800e+02 9.380481e-01
1.189404e+02 -2.022521e-01 9.426734e-02 -2.170070e-01 2.150400e+02 9.372339e-01
1.189552e+02        nan 0.000000e+00 0.000000e+00 2.150400e+02 9.338203e-01
1.189699e+02        nan 0.000000e+00 0.000000e+00 6.144000e+01 9.279263e-01
