# Object name: IRAS_07069-1045
# Instrument: FIFI-LS
# z: 0.00005500
# Ref. Wav.: 118.58100000
# Area aperture: 0.00000 degs
"wavelength","flux","eflux","uflux","exposure","atran"
1.182029e+02        nan 0.000000e+00 0.000000e+00 9.216000e+01 9.375452e-01
1.182177e+02        nan 0.000000e+00 0.000000e+00 9.216000e+01 9.350714e-01
1.182324e+02 9.814013e-01 1.136399e-01 9.561323e-01 2.457600e+02 9.321246e-01
1.182472e+02 9.268440e-01 9.254866e-02 8.861167e-01 2.457600e+02 9.289193e-01
1.182619e+02 8.200499e-01 8.030981e-02 7.618982e-01 3.072000e+02 9.257978e-01
1.182767e+02 6.447352e-01 7.219330e-02 5.964213e-01 3.072000e+02 9.231461e-01
1.182914e+02 4.972571e-01 6.528458e-02 4.674031e-01 4.608000e+02 9.212635e-01
1.183062e+02 4.819094e-01 6.048928e-02 4.777611e-01 4.608000e+02 9.202379e-01
1.183209e+02 6.126631e-01 5.579302e-02 6.008552e-01 5.529600e+02 9.199022e-01
1.183357e+02 7.439896e-01 5.242052e-02 7.131220e-01 7.065600e+02 9.199080e-01
1.183504e+02 7.017801e-01 4.948426e-02 6.562175e-01 7.065600e+02 9.198944e-01
1.183652e+02 6.303719e-01 4.712017e-02 5.940233e-01 7.987200e+02 9.196669e-01
1.183799e+02 6.913083e-01 4.526481e-02 6.673414e-01 7.987200e+02 9.192898e-01
1.183947e+02 8.031157e-01 4.382248e-02 7.652475e-01 7.987200e+02 9.190409e-01
1.184094e+02 7.436372e-01 4.269670e-02 6.886199e-01 7.987200e+02 9.192566e-01
1.184242e+02 5.888827e-01 4.184639e-02 5.461391e-01 7.987200e+02 9.201525e-01
1.184389e+02 5.574314e-01 4.118695e-02 5.463749e-01 7.987200e+02 9.217150e-01
1.184537e+02 7.036603e-01 4.068510e-02 6.899358e-01 7.987200e+02 9.237070e-01
1.184684e+02 8.271659e-01 4.019682e-02 7.988611e-01 7.987200e+02 9.257663e-01
1.184832e+02 8.685892e-01 3.978175e-02 8.378283e-01 7.987200e+02 9.275193e-01
1.184979e+02 8.805547e-01 3.932954e-02 8.451923e-01 7.987200e+02 9.286326e-01
1.185127e+02 8.323869e-01 3.904969e-02 7.872028e-01 7.987200e+02 9.287766e-01
1.185274e+02 6.995683e-01 3.862996e-02 6.487489e-01 7.987200e+02 9.275254e-01
1.185422e+02 6.004416e-01 3.849293e-02 5.681878e-01 7.987200e+02 9.242792e-01
1.185569e+02 5.967599e-01 3.830456e-02 5.722329e-01 7.987200e+02 9.183210e-01
1.185717e+02 6.397039e-01 3.842360e-02 6.101453e-01 7.987200e+02 9.090588e-01
1.185864e+02 6.638654e-01 3.884603e-02 6.133652e-01 7.987200e+02 8.964269e-01
1.186012e+02 6.433865e-01 3.944305e-02 5.814777e-01 7.987200e+02 8.813002e-01
1.186159e+02 6.664345e-01 4.014567e-02 6.110015e-01 7.987200e+02 8.656484e-01
1.186307e+02 7.737730e-01 4.074722e-02 6.910216e-01 7.987200e+02 8.522187e-01
1.186454e+02 8.177834e-01 4.103333e-02 7.072476e-01 7.987200e+02 8.437356e-01
1.186602e+02 7.484468e-01 4.136467e-02 6.412689e-01 7.987200e+02 8.418671e-01
1.186749e+02 7.516149e-01 4.116228e-02 6.659470e-01 7.987200e+02 8.464715e-01
1.186897e+02 8.871273e-01 4.117158e-02 7.988307e-01 7.987200e+02 8.554930e-01
1.187044e+02 9.777046e-01 4.107156e-02 8.738782e-01 7.987200e+02 8.656301e-01
1.187192e+02 9.070114e-01 4.103505e-02 8.140771e-01 7.987200e+02 8.735366e-01
1.187339e+02 8.591822e-01 4.138616e-02 7.782449e-01 7.987200e+02 8.770138e-01
1.187487e+02 8.881435e-01 4.179666e-02 8.136839e-01 7.987200e+02 8.757619e-01
1.187634e+02 9.146078e-01 4.253888e-02 8.189935e-01 7.987200e+02 8.713829e-01
1.187782e+02 8.573605e-01 4.332799e-02 7.687676e-01 7.987200e+02 8.666961e-01
1.187929e+02 8.100689e-01 4.427824e-02 7.150230e-01 7.987200e+02 8.646390e-01
1.188077e+02 7.065550e-01 4.541752e-02 6.168742e-01 7.987200e+02 8.671947e-01
1.188224e+02 5.001991e-01 4.691620e-02 4.247127e-01 7.065600e+02 8.747751e-01
1.188372e+02 4.480620e-01 4.875268e-02 4.148769e-01 7.065600e+02 8.862484e-01
1.188519e+02 5.555108e-01 5.076895e-02 5.229097e-01 5.529600e+02 8.995420e-01
1.188667e+02 5.903745e-01 5.318546e-02 5.431348e-01 5.529600e+02 9.124584e-01
1.188814e+02 5.372509e-01 5.609096e-02 5.101513e-01 4.915200e+02 9.233305e-01
1.188962e+02 5.562814e-01 5.980822e-02 5.430113e-01 4.915200e+02 9.312886e-01
1.189109e+02 6.027445e-01 6.512381e-02 5.698129e-01 3.379200e+02 9.361384e-01
1.189257e+02 3.965621e-01 7.197711e-02 3.450156e-01 3.379200e+02 9.380481e-01
1.189404e+02 3.314472e-02 8.315764e-02 -8.125836e-03 2.457600e+02 9.372339e-01
1.189552e+02 -1.403279e-01 9.969564e-02 -1.328411e-01 2.457600e+02 9.338203e-01
1.189699e+02        nan 0.000000e+00 0.000000e+00 9.216000e+01 9.279263e-01
