# Object name: IRAS_07069-1045
# Instrument: FIFI-LS
# z: 0.00005500
# Ref. Wav.: 118.58100000
# Area aperture: 0.00000 degs
"wavelength","flux","eflux","uflux","exposure","atran"
1.182029e+02        nan 0.000000e+00 0.000000e+00 6.144000e+01 9.375452e-01
1.182177e+02        nan 0.000000e+00 0.000000e+00 6.144000e+01 9.350714e-01
1.182324e+02        nan 0.000000e+00 0.000000e+00 1.843200e+02 9.321246e-01
1.182472e+02        nan 0.000000e+00 1.300798e-01 1.843200e+02 9.289193e-01
1.182619e+02 4.099111e-02 9.936477e-02 4.366365e-02 2.150400e+02 9.257978e-01
1.182767e+02 1.280864e-01 8.946609e-02 1.385796e-01 2.150400e+02 9.231461e-01
1.182914e+02 2.726093e-01 8.079071e-02 2.701474e-01 3.379200e+02 9.212635e-01
1.183062e+02 3.602554e-01 7.489813e-02 3.622843e-01 3.379200e+02 9.202379e-01
1.183209e+02 5.163870e-01 6.899034e-02 5.017526e-01 3.993600e+02 9.199022e-01
1.183357e+02 5.133676e-01 6.495859e-02 4.800358e-01 5.222400e+02 9.199080e-01
1.183504e+02 3.372896e-01 6.132637e-02 3.012023e-01 5.222400e+02 9.198944e-01
1.183652e+02 2.107268e-01 5.839955e-02 1.908565e-01 5.836800e+02 9.196669e-01
1.183799e+02 2.407663e-01 5.622599e-02 2.375576e-01 5.836800e+02 9.192898e-01
1.183947e+02 2.588796e-01 5.440519e-02 2.379154e-01 5.836800e+02 9.190409e-01
1.184094e+02 1.794079e-01 5.324244e-02 1.559382e-01 5.836800e+02 9.192566e-01
1.184242e+02 1.469006e-01 5.220963e-02 1.559799e-01 5.836800e+02 9.201525e-01
1.184389e+02 2.730867e-01 5.134842e-02 2.797830e-01 5.836800e+02 9.217150e-01
1.184537e+02 4.017576e-01 5.079012e-02 3.991170e-01 5.836800e+02 9.237070e-01
1.184684e+02 4.498047e-01 5.014590e-02 4.303751e-01 5.836800e+02 9.257663e-01
1.184832e+02 4.241364e-01 4.976065e-02 4.023039e-01 5.836800e+02 9.275193e-01
1.184979e+02 4.580517e-01 4.917640e-02 4.421988e-01 5.836800e+02 9.286326e-01
1.185127e+02 5.323776e-01 4.884180e-02 5.234261e-01 5.836800e+02 9.287766e-01
1.185274e+02 5.475921e-01 4.825906e-02 5.179703e-01 5.836800e+02 9.275254e-01
1.185422e+02 4.560554e-01 4.801018e-02 4.258487e-01 5.836800e+02 9.242792e-01
1.185569e+02 3.386873e-01 4.775081e-02 3.212804e-01 5.836800e+02 9.183210e-01
1.185717e+02 3.436672e-01 4.793027e-02 3.306970e-01 5.836800e+02 9.090588e-01
1.185864e+02 4.305350e-01 4.842554e-02 4.034609e-01 5.836800e+02 8.964269e-01
1.186012e+02 4.655405e-01 4.915486e-02 4.218881e-01 5.836800e+02 8.813002e-01
1.186159e+02 3.671383e-01 5.004778e-02 3.235503e-01 5.836800e+02 8.656484e-01
1.186307e+02 2.996411e-01 5.088784e-02 2.682344e-01 5.836800e+02 8.522187e-01
1.186454e+02 3.523960e-01 5.125541e-02 3.100476e-01 5.836800e+02 8.437356e-01
1.186602e+02 4.315251e-01 5.168495e-02 3.870916e-01 5.836800e+02 8.418671e-01
1.186749e+02 5.289734e-01 5.140260e-02 4.730803e-01 5.836800e+02 8.464715e-01
1.186897e+02 6.199484e-01 5.148121e-02 5.570789e-01 5.836800e+02 8.554930e-01
1.187044e+02 7.001660e-01 5.119787e-02 6.262839e-01 5.836800e+02 8.656301e-01
1.187192e+02 6.278314e-01 5.127268e-02 5.481122e-01 5.836800e+02 8.735366e-01
1.187339e+02 4.895221e-01 5.170447e-02 4.357920e-01 5.836800e+02 8.770138e-01
1.187487e+02 4.930966e-01 5.209214e-02 4.587158e-01 5.836800e+02 8.757619e-01
1.187634e+02 5.368369e-01 5.299926e-02 4.777104e-01 5.836800e+02 8.713829e-01
1.187782e+02 3.983290e-01 5.406093e-02 3.410740e-01 5.836800e+02 8.666961e-01
1.187929e+02 1.891682e-01 5.526422e-02 1.486004e-01 5.836800e+02 8.646390e-01
1.188077e+02 1.079490e-01 5.685012e-02 9.117848e-02 5.836800e+02 8.671947e-01
1.188224e+02 1.981262e-01 5.878466e-02 2.004573e-01 5.222400e+02 8.747751e-01
1.188372e+02 2.912329e-01 6.108009e-02 2.685258e-01 5.222400e+02 8.862484e-01
1.188519e+02 2.567223e-01 6.372128e-02 2.259890e-01 3.993600e+02 8.995420e-01
1.188667e+02 2.323356e-01 6.651585e-02 2.184953e-01 3.993600e+02 9.124584e-01
1.188814e+02 2.089581e-01 7.049990e-02 2.044750e-01 3.686400e+02 9.233305e-01
1.188962e+02 1.498003e-01 7.485914e-02 1.382218e-01 3.686400e+02 9.312886e-01
1.189109e+02 9.632381e-03 8.157873e-02 -1.480233e-02 2.457600e+02 9.361384e-01
1.189257e+02 -2.048279e-01 9.036558e-02 -2.220075e-01 2.457600e+02 9.380481e-01
1.189404e+02        nan 0.000000e+00 0.000000e+00 1.843200e+02 9.372339e-01
1.189552e+02        nan 0.000000e+00 0.000000e+00 1.843200e+02 9.338203e-01
1.189699e+02        nan 0.000000e+00 0.000000e+00 6.144000e+01 9.279263e-01
