# Object name: IRAS_07069-1045
# Instrument: FIFI-LS
# z: 0.00005500
# Ref. Wav.: 118.58100000
# Area aperture: 0.00000 degs
"wavelength","flux","eflux","uflux","exposure","atran"
1.182029e+02        nan 0.000000e+00 0.000000e+00 9.216000e+01 9.375452e-01
1.182177e+02        nan 0.000000e+00 0.000000e+00 9.216000e+01 9.350714e-01
1.182324e+02 8.033602e-01 1.175018e-01 7.235928e-01 2.457600e+02 9.321246e-01
1.182472e+02 4.509483e-01 9.640819e-02 4.077587e-01 2.457600e+02 9.289193e-01
1.182619e+02 2.986639e-01 8.348548e-02 2.728758e-01 3.072000e+02 9.257978e-01
1.182767e+02 2.456796e-01 7.540638e-02 2.213789e-01 3.072000e+02 9.231461e-01
1.182914e+02 2.723992e-01 6.818548e-02 2.653168e-01 4.608000e+02 9.212635e-01
1.183062e+02 3.649027e-01 6.313186e-02 3.737954e-01 4.608000e+02 9.202379e-01
1.183209e+02 5.054630e-01 5.838509e-02 4.864130e-01 5.529600e+02 9.199022e-01
1.183357e+02 4.915488e-01 5.479262e-02 4.592489e-01 7.065600e+02 9.199080e-01
1.183504e+02 3.589728e-01 5.173576e-02 3.289068e-01 7.065600e+02 9.198944e-01
1.183652e+02 2.839592e-01 4.922891e-02 2.653466e-01 7.987200e+02 9.196669e-01
1.183799e+02 3.135577e-01 4.742618e-02 2.937440e-01 7.987200e+02 9.192898e-01
1.183947e+02 3.206667e-01 4.596365e-02 3.002282e-01 7.987200e+02 9.190409e-01
1.184094e+02 2.478950e-01 4.489508e-02 2.238387e-01 7.987200e+02 9.192566e-01
1.184242e+02 2.127567e-01 4.412131e-02 2.088940e-01 7.987200e+02 9.201525e-01
1.184389e+02 2.958933e-01 4.335746e-02 2.925392e-01 7.987200e+02 9.217150e-01
1.184537e+02 3.868726e-01 4.285734e-02 3.730096e-01 7.987200e+02 9.237070e-01
1.184684e+02 3.954323e-01 4.226706e-02 3.766222e-01 7.987200e+02 9.257663e-01
1.184832e+02 4.021723e-01 4.187977e-02 3.773524e-01 7.987200e+02 9.275193e-01
1.184979e+02 4.314553e-01 4.143899e-02 4.230660e-01 7.987200e+02 9.286326e-01
1.185127e+02 5.063599e-01 4.110815e-02 4.934336e-01 7.987200e+02 9.287766e-01
1.185274e+02 4.817038e-01 4.067061e-02 4.542741e-01 7.987200e+02 9.275254e-01
1.185422e+02 3.956273e-01 4.048252e-02 3.669779e-01 7.987200e+02 9.242792e-01
1.185569e+02 3.333285e-01 4.033584e-02 3.191747e-01 7.987200e+02 9.183210e-01
1.185717e+02 3.381171e-01 4.042511e-02 3.232619e-01 7.987200e+02 9.090588e-01
1.185864e+02 3.496126e-01 4.093418e-02 3.211555e-01 7.987200e+02 8.964269e-01
1.186012e+02 3.160292e-01 4.151409e-02 2.887989e-01 7.987200e+02 8.813002e-01
1.186159e+02 3.167168e-01 4.228601e-02 2.949085e-01 7.987200e+02 8.656484e-01
1.186307e+02 4.070251e-01 4.296594e-02 3.682143e-01 7.987200e+02 8.522187e-01
1.186454e+02 4.622809e-01 4.328520e-02 4.025284e-01 7.987200e+02 8.437356e-01
1.186602e+02 4.145397e-01 4.372450e-02 3.520462e-01 7.987200e+02 8.418671e-01
1.186749e+02 3.921497e-01 4.344662e-02 3.495388e-01 7.987200e+02 8.464715e-01
1.186897e+02 4.924819e-01 4.346236e-02 4.475439e-01 7.987200e+02 8.554930e-01
1.187044e+02 6.322144e-01 4.339824e-02 5.801254e-01 7.987200e+02 8.656301e-01
1.187192e+02 6.384208e-01 4.339237e-02 5.601004e-01 7.987200e+02 8.735366e-01
1.187339e+02 5.040242e-01 4.376728e-02 4.451353e-01 7.987200e+02 8.770138e-01
1.187487e+02 4.452841e-01 4.424128e-02 4.034139e-01 7.987200e+02 8.757619e-01
1.187634e+02 4.400181e-01 4.498319e-02 3.957328e-01 7.987200e+02 8.713829e-01
1.187782e+02 3.918418e-01 4.584458e-02 3.382200e-01 7.987200e+02 8.666961e-01
1.187929e+02 2.577886e-01 4.697674e-02 2.158816e-01 7.987200e+02 8.646390e-01
1.188077e+02 1.451946e-01 4.823209e-02 1.208427e-01 7.987200e+02 8.671947e-01
1.188224e+02 9.920205e-02 4.996336e-02 9.014392e-02 7.065600e+02 8.747751e-01
1.188372e+02 1.103430e-01 5.179324e-02 9.931344e-02 7.065600e+02 8.862484e-01
1.188519e+02 1.321643e-01 5.402618e-02 1.229244e-01 5.529600e+02 8.995420e-01
1.188667e+02 1.661883e-01 5.666584e-02 1.702006e-01 5.529600e+02 9.124584e-01
1.188814e+02 2.606427e-01 5.993068e-02 2.603358e-01 4.915200e+02 9.233305e-01
1.188962e+02 3.721295e-01 6.377837e-02 3.568151e-01 4.915200e+02 9.312886e-01
1.189109e+02 2.860126e-01 6.963189e-02 2.546466e-01 3.379200e+02 9.361384e-01
1.189257e+02 -5.753278e-02 7.723609e-02 -1.051573e-01 3.379200e+02 9.380481e-01
1.189404e+02 -3.871073e-01 8.972196e-02 -4.129214e-01 2.457600e+02 9.372339e-01
1.189552e+02 -4.674397e-01 1.080649e-01 -4.470147e-01 2.457600e+02 9.338203e-01
1.189699e+02        nan 0.000000e+00 0.000000e+00 9.216000e+01 9.279263e-01
