# Object name: IRAS_07069-1045
# Instrument: FIFI-LS
# z: 0.00005500
# Ref. Wav.: 118.58100000
# Area aperture: 0.00000 degs
"wavelength","flux","eflux","uflux","exposure","atran"
1.182029e+02        nan 0.000000e+00 0.000000e+00 6.144000e+01 9.375452e-01
1.182177e+02        nan 0.000000e+00 0.000000e+00 6.144000e+01 9.350714e-01
1.182324e+02        nan 0.000000e+00 0.000000e+00 1.843200e+02 9.321246e-01
1.182472e+02 -2.699381e-02 1.123111e-01 -6.151208e-02 1.843200e+02 9.289193e-01
1.182619e+02 -1.305133e-01 9.746418e-02 -1.155077e-01 2.150400e+02 9.257978e-01
1.182767e+02 3.414057e-02 8.763495e-02 5.879165e-02 2.150400e+02 9.231461e-01
1.182914e+02 2.694988e-01 7.931272e-02 2.890028e-01 3.379200e+02 9.212635e-01
1.183062e+02 5.031213e-01 7.350499e-02 5.012661e-01 3.379200e+02 9.202379e-01
1.183209e+02 5.862129e-01 6.773903e-02 5.573749e-01 3.993600e+02 9.199022e-01
1.183357e+02 4.830227e-01 6.358175e-02 4.371477e-01 5.222400e+02 9.199080e-01
1.183504e+02 2.426525e-01 6.011026e-02 2.067795e-01 5.222400e+02 9.198944e-01
1.183652e+02 1.006055e-01 5.735637e-02 9.179866e-02 5.836800e+02 9.196669e-01
1.183799e+02 9.297037e-02 5.514975e-02 8.461533e-02 5.836800e+02 9.192898e-01
1.183947e+02 3.653164e-02 5.344511e-02 2.560434e-02 5.836800e+02 9.190409e-01
1.184094e+02 -5.187613e-02 5.222201e-02 -4.818028e-02 5.836800e+02 9.192566e-01
1.184242e+02 -6.864478e-03 5.129982e-02 1.172151e-02 5.836800e+02 9.201525e-01
1.184389e+02 1.733695e-01 5.052408e-02 1.808976e-01 5.836800e+02 9.217150e-01
1.184537e+02 2.747225e-01 4.992527e-02 2.711943e-01 5.836800e+02 9.237070e-01
1.184684e+02 2.910687e-01 4.929221e-02 2.799017e-01 5.836800e+02 9.257663e-01
1.184832e+02 2.935710e-01 4.886053e-02 2.880557e-01 5.836800e+02 9.275193e-01
1.184979e+02 3.599357e-01 4.823420e-02 3.611993e-01 5.836800e+02 9.286326e-01
1.185127e+02 4.888278e-01 4.784048e-02 4.836814e-01 5.836800e+02 9.287766e-01
1.185274e+02 5.236654e-01 4.745155e-02 4.968519e-01 5.836800e+02 9.275254e-01
1.185422e+02 4.474975e-01 4.716936e-02 4.128862e-01 5.836800e+02 9.242792e-01
1.185569e+02 3.337179e-01 4.699779e-02 3.082724e-01 5.836800e+02 9.183210e-01
1.185717e+02 3.064431e-01 4.709272e-02 2.893038e-01 5.836800e+02 9.090588e-01
1.185864e+02 3.175552e-01 4.767327e-02 2.921437e-01 5.836800e+02 8.964269e-01
1.186012e+02 2.849562e-01 4.836674e-02 2.554613e-01 5.836800e+02 8.813002e-01
1.186159e+02 1.810035e-01 4.930815e-02 1.485358e-01 5.836800e+02 8.656484e-01
1.186307e+02 1.522033e-01 5.000561e-02 1.346345e-01 5.836800e+02 8.522187e-01
1.186454e+02 2.221749e-01 5.040574e-02 1.930571e-01 5.836800e+02 8.437356e-01
1.186602e+02 2.747755e-01 5.084521e-02 2.416754e-01 5.836800e+02 8.418671e-01
1.186749e+02 3.205395e-01 5.071740e-02 2.901903e-01 5.836800e+02 8.464715e-01
1.186897e+02 3.959471e-01 5.066534e-02 3.622875e-01 5.836800e+02 8.554930e-01
1.187044e+02 5.426558e-01 5.051575e-02 4.919893e-01 5.836800e+02 8.656301e-01
1.187192e+02 5.324549e-01 5.050193e-02 4.703778e-01 5.836800e+02 8.735366e-01
1.187339e+02 3.975030e-01 5.093163e-02 3.515411e-01 5.836800e+02 8.770138e-01
1.187487e+02 3.468312e-01 5.144068e-02 3.299045e-01 5.836800e+02 8.757619e-01
1.187634e+02 4.017012e-01 5.225223e-02 3.634598e-01 5.836800e+02 8.713829e-01
1.187782e+02 3.626890e-01 5.327298e-02 3.096696e-01 5.836800e+02 8.666961e-01
1.187929e+02 1.730910e-01 5.451703e-02 1.313152e-01 5.836800e+02 8.646390e-01
1.188077e+02 6.811028e-02 5.596033e-02 6.019542e-02 5.836800e+02 8.671947e-01
1.188224e+02 1.399360e-01 5.795583e-02 1.345692e-01 5.222400e+02 8.747751e-01
1.188372e+02 2.173230e-01 6.016602e-02 2.008919e-01 5.222400e+02 8.862484e-01
1.188519e+02 1.732694e-01 6.278101e-02 1.530209e-01 3.993600e+02 8.995420e-01
1.188667e+02 1.650387e-01 6.584354e-02 1.558691e-01 3.993600e+02 9.124584e-01
1.188814e+02 1.804983e-01 6.963358e-02 1.749990e-01 3.686400e+02 9.233305e-01
1.188962e+02 1.241137e-01 7.449366e-02 1.076614e-01 3.686400e+02 9.312886e-01
1.189109e+02 -1.061551e-01 8.126970e-02 -1.413748e-01 2.457600e+02 9.361384e-01
1.189257e+02 -4.722674e-01 8.995789e-02 -4.820298e-01 2.457600e+02 9.380481e-01
1.189404e+02 -6.614602e-01 1.041467e-01 -6.382818e-01 1.843200e+02 9.372339e-01
1.189552e+02        nan 0.000000e+00 0.000000e+00 1.843200e+02 9.338203e-01
1.189699e+02        nan 0.000000e+00 0.000000e+00 6.144000e+01 9.279263e-01
