# Object name: IRAS_07069-1045
# Instrument: FIFI-LS
# z: 0.00005500
# Ref. Wav.: 118.58100000
# Area aperture: 0.00000 degs
"wavelength","flux","eflux","uflux","exposure","atran"
1.182029e+02        nan 0.000000e+00 0.000000e+00 6.144000e+01 9.375452e-01
1.182177e+02        nan 0.000000e+00 0.000000e+00 6.144000e+01 9.350714e-01
1.182324e+02        nan 0.000000e+00 0.000000e+00 1.843200e+02 9.321246e-01
1.182472e+02 -2.449387e-01 1.126396e-01 -2.770287e-01 1.843200e+02 9.289193e-01
1.182619e+02 -3.505172e-01 9.835259e-02 -3.116567e-01 2.150400e+02 9.257978e-01
1.182767e+02 -8.282016e-02 8.799108e-02 -3.420720e-02 2.150400e+02 9.231461e-01
1.182914e+02 3.236751e-01 7.974508e-02 3.594953e-01 3.379200e+02 9.212635e-01
1.183062e+02 6.829777e-01 7.372591e-02 6.878793e-01 3.379200e+02 9.202379e-01
1.183209e+02 7.158774e-01 6.798658e-02 6.702091e-01 3.993600e+02 9.199022e-01
1.183357e+02 5.079554e-01 6.408945e-02 4.418138e-01 5.222400e+02 9.199080e-01
1.183504e+02 2.170729e-01 6.021228e-02 1.829041e-01 5.222400e+02 9.198944e-01
1.183652e+02 7.448271e-02 5.767734e-02 6.642116e-02 5.836800e+02 9.196669e-01
1.183799e+02 2.490753e-02 5.531178e-02 1.265105e-02 5.836800e+02 9.192898e-01
1.183947e+02 -9.877927e-02 5.385182e-02 -1.073372e-01 5.836800e+02 9.190409e-01
1.184094e+02 -1.662167e-01 5.259314e-02 -1.526763e-01 5.836800e+02 9.192566e-01
1.184242e+02 -4.736942e-02 5.170803e-02 -1.907958e-02 5.836800e+02 9.201525e-01
1.184389e+02 1.576647e-01 5.103355e-02 1.637640e-01 5.836800e+02 9.217150e-01
1.184537e+02 2.262262e-01 5.021744e-02 2.058164e-01 5.836800e+02 9.237070e-01
1.184684e+02 1.995121e-01 4.957689e-02 1.921156e-01 5.836800e+02 9.257663e-01
1.184832e+02 1.879275e-01 4.906815e-02 1.910788e-01 5.836800e+02 9.275193e-01
1.184979e+02 2.820168e-01 4.858117e-02 2.880146e-01 5.836800e+02 9.286326e-01
1.185127e+02 4.181400e-01 4.813180e-02 4.169972e-01 5.836800e+02 9.287766e-01
1.185274e+02 4.816476e-01 4.765732e-02 4.643061e-01 5.836800e+02 9.275254e-01
1.185422e+02 4.630521e-01 4.749089e-02 4.337040e-01 5.836800e+02 9.242792e-01
1.185569e+02 4.016473e-01 4.722375e-02 3.767027e-01 5.836800e+02 9.183210e-01
1.185717e+02 3.739210e-01 4.752161e-02 3.541436e-01 5.836800e+02 9.090588e-01
1.185864e+02 3.100887e-01 4.790501e-02 2.720547e-01 5.836800e+02 8.964269e-01
1.186012e+02 1.676551e-01 4.868120e-02 1.332782e-01 5.836800e+02 8.813002e-01
1.186159e+02 2.136245e-02 4.958145e-02 1.469045e-02 5.836800e+02 8.656484e-01
1.186307e+02 2.464442e-02 5.039492e-02 3.150800e-02 5.836800e+02 8.522187e-01
1.186454e+02 1.440587e-01 5.091498e-02 1.328453e-01 5.836800e+02 8.437356e-01
1.186602e+02 2.238964e-01 5.129936e-02 1.979853e-01 5.836800e+02 8.418671e-01
1.186749e+02 2.596942e-01 5.110114e-02 2.329775e-01 5.836800e+02 8.464715e-01
1.186897e+02 3.315553e-01 5.100866e-02 3.021869e-01 5.836800e+02 8.554930e-01
1.187044e+02 4.805567e-01 5.088366e-02 4.410834e-01 5.836800e+02 8.656301e-01
1.187192e+02 5.382505e-01 5.083376e-02 4.766971e-01 5.836800e+02 8.735366e-01
1.187339e+02 4.457698e-01 5.121041e-02 3.921517e-01 5.836800e+02 8.770138e-01
1.187487e+02 3.714963e-01 5.170442e-02 3.406438e-01 5.836800e+02 8.757619e-01
1.187634e+02 4.158035e-01 5.266433e-02 3.780583e-01 5.836800e+02 8.713829e-01
1.187782e+02 3.973643e-01 5.374301e-02 3.398822e-01 5.836800e+02 8.666961e-01
1.187929e+02 2.209240e-01 5.501663e-02 1.710682e-01 5.836800e+02 8.646390e-01
1.188077e+02 1.061316e-01 5.672298e-02 9.616909e-02 5.836800e+02 8.671947e-01
1.188224e+02 1.891224e-01 5.848071e-02 1.921421e-01 5.222400e+02 8.747751e-01
1.188372e+02 2.996152e-01 6.083279e-02 2.783923e-01 5.222400e+02 8.862484e-01
1.188519e+02 3.047575e-01 6.338194e-02 2.864676e-01 3.993600e+02 8.995420e-01
1.188667e+02 3.051071e-01 6.637048e-02 2.992459e-01 3.993600e+02 9.124584e-01
1.188814e+02 3.758725e-01 7.041296e-02 3.588160e-01 3.686400e+02 9.233305e-01
1.188962e+02 2.994593e-01 7.474257e-02 2.638900e-01 3.686400e+02 9.312886e-01
1.189109e+02 -6.626747e-02 8.162810e-02 -1.308038e-01 2.457600e+02 9.361384e-01
1.189257e+02 -5.512684e-01 9.071628e-02 -5.899855e-01 2.457600e+02 9.380481e-01
1.189404e+02 -8.293982e-01 1.052742e-01 -7.953103e-01 1.843200e+02 9.372339e-01
1.189552e+02        nan 0.000000e+00 0.000000e+00 1.843200e+02 9.338203e-01
1.189699e+02        nan 0.000000e+00 0.000000e+00 6.144000e+01 9.279263e-01
