# Object name: IRAS_07069-1045
# Instrument: FIFI-LS
# z: 0.00005500
# Ref. Wav.: 118.58100000
# Area aperture: 0.00000 degs
"wavelength","flux","eflux","uflux","exposure","atran"
1.182029e+02        nan 0.000000e+00 0.000000e+00 9.216000e+01 9.375452e-01
1.182177e+02        nan 0.000000e+00 0.000000e+00 9.216000e+01 9.350714e-01
1.182324e+02 5.629789e-01 1.183899e-01 4.765307e-01 2.457600e+02 9.321246e-01
1.182472e+02 1.509664e-01 9.763412e-02 1.199336e-01 2.457600e+02 9.289193e-01
1.182619e+02 -4.556068e-03 8.447056e-02 2.452967e-03 3.072000e+02 9.257978e-01
1.182767e+02 2.158808e-02 7.622143e-02 3.321013e-02 3.072000e+02 9.231461e-01
1.182914e+02 2.062754e-01 6.909092e-02 2.140978e-01 4.608000e+02 9.212635e-01
1.183062e+02 4.017427e-01 6.413380e-02 4.024627e-01 4.608000e+02 9.202379e-01
1.183209e+02 4.949074e-01 5.908184e-02 4.714366e-01 5.529600e+02 9.199022e-01
1.183357e+02 4.151055e-01 5.538094e-02 3.710470e-01 7.065600e+02 9.199080e-01
1.183504e+02 2.516789e-01 5.234769e-02 2.235331e-01 7.065600e+02 9.198944e-01
1.183652e+02 2.067583e-01 4.984380e-02 1.958594e-01 7.987200e+02 9.196669e-01
1.183799e+02 2.150278e-01 4.803995e-02 2.018781e-01 7.987200e+02 9.192898e-01
1.183947e+02 1.768905e-01 4.657966e-02 1.591428e-01 7.987200e+02 9.190409e-01
1.184094e+02 1.120873e-01 4.556955e-02 1.061910e-01 7.987200e+02 9.192566e-01
1.184242e+02 1.535056e-01 4.478780e-02 1.596455e-01 7.987200e+02 9.201525e-01
1.184389e+02 2.507141e-01 4.405874e-02 2.474934e-01 7.987200e+02 9.217150e-01
1.184537e+02 2.915900e-01 4.350159e-02 2.796493e-01 7.987200e+02 9.237070e-01
1.184684e+02 2.698812e-01 4.287557e-02 2.527857e-01 7.987200e+02 9.257663e-01
1.184832e+02 2.267821e-01 4.249673e-02 2.219505e-01 7.987200e+02 9.275193e-01
1.184979e+02 2.937622e-01 4.199875e-02 2.916528e-01 7.987200e+02 9.286326e-01
1.185127e+02 3.760934e-01 4.172715e-02 3.716680e-01 7.987200e+02 9.287766e-01
1.185274e+02 4.174192e-01 4.121186e-02 3.940135e-01 7.987200e+02 9.275254e-01
1.185422e+02 3.657363e-01 4.109540e-02 3.423550e-01 7.987200e+02 9.242792e-01
1.185569e+02 3.304540e-01 4.093187e-02 3.146174e-01 7.987200e+02 9.183210e-01
1.185717e+02 3.277309e-01 4.109624e-02 3.063442e-01 7.987200e+02 9.090588e-01
1.185864e+02 3.046102e-01 4.152659e-02 2.725863e-01 7.987200e+02 8.964269e-01
1.186012e+02 2.481830e-01 4.214382e-02 2.217575e-01 7.987200e+02 8.813002e-01
1.186159e+02 2.174578e-01 4.292676e-02 1.998091e-01 7.987200e+02 8.656484e-01
1.186307e+02 3.138649e-01 4.358247e-02 2.856535e-01 7.987200e+02 8.522187e-01
1.186454e+02 3.843044e-01 4.403620e-02 3.334136e-01 7.987200e+02 8.437356e-01
1.186602e+02 3.637736e-01 4.440645e-02 3.076862e-01 7.987200e+02 8.418671e-01
1.186749e+02 3.450693e-01 4.420986e-02 2.994142e-01 7.987200e+02 8.464715e-01
1.186897e+02 4.042449e-01 4.425755e-02 3.767983e-01 7.987200e+02 8.554930e-01
1.187044e+02 5.368149e-01 4.408661e-02 4.882834e-01 7.987200e+02 8.656301e-01
1.187192e+02 5.435423e-01 4.413807e-02 4.819169e-01 7.987200e+02 8.735366e-01
1.187339e+02 4.224148e-01 4.448696e-02 3.648235e-01 7.987200e+02 8.770138e-01
1.187487e+02 3.080954e-01 4.493281e-02 2.767967e-01 7.987200e+02 8.757619e-01
1.187634e+02 2.923173e-01 4.569317e-02 2.612878e-01 7.987200e+02 8.713829e-01
1.187782e+02 2.646038e-01 4.657542e-02 2.274480e-01 7.987200e+02 8.666961e-01
1.187929e+02 1.636630e-01 4.780024e-02 1.327158e-01 7.987200e+02 8.646390e-01
1.188077e+02 7.832690e-02 4.906140e-02 6.738496e-02 7.987200e+02 8.671947e-01
1.188224e+02 7.041980e-02 5.090624e-02 7.212922e-02 7.065600e+02 8.747751e-01
1.188372e+02 1.399479e-01 5.277998e-02 1.336509e-01 7.065600e+02 8.862484e-01
1.188519e+02 1.658979e-01 5.501600e-02 1.576717e-01 5.529600e+02 8.995420e-01
1.188667e+02 2.344124e-01 5.764341e-02 2.283785e-01 5.529600e+02 9.124584e-01
1.188814e+02 3.649419e-01 6.102523e-02 3.620290e-01 4.915200e+02 9.233305e-01
1.188962e+02 4.623374e-01 6.501901e-02 4.478372e-01 4.915200e+02 9.312886e-01
1.189109e+02 3.261559e-01 7.093838e-02 2.728045e-01 3.379200e+02 9.361384e-01
1.189257e+02 -8.340542e-02 7.889914e-02 -1.149719e-01 3.379200e+02 9.380481e-01
1.189404e+02 -4.283204e-01 9.153818e-02 -4.370769e-01 2.457600e+02 9.372339e-01
1.189552e+02 -4.511922e-01 1.111128e-01 -3.944123e-01 2.457600e+02 9.338203e-01
1.189699e+02        nan 0.000000e+00 0.000000e+00 9.216000e+01 9.279263e-01
