# Object name: IRAS_07069-1045
# Instrument: FIFI-LS
# z: 0.00005500
# Ref. Wav.: 118.58100000
# Area aperture: 0.00000 degs
"wavelength","flux","eflux","uflux","exposure","atran"
1.182029e+02        nan 0.000000e+00 0.000000e+00 6.144000e+01 9.375452e-01
1.182177e+02        nan 0.000000e+00 0.000000e+00 6.144000e+01 9.350714e-01
1.182324e+02 1.216878e+00 1.331150e-01 1.106214e+00 2.457600e+02 9.321246e-01
1.182472e+02 7.139371e-01 1.080836e-01 6.533411e-01 2.457600e+02 9.289193e-01
1.182619e+02 4.863340e-01 9.258035e-02 4.599250e-01 3.072000e+02 9.257978e-01
1.182767e+02 4.462235e-01 8.265273e-02 4.166739e-01 3.072000e+02 9.231461e-01
1.182914e+02 4.010343e-01 7.517013e-02 3.687191e-01 4.915200e+02 9.212635e-01
1.183062e+02 2.957846e-01 6.973382e-02 2.645349e-01 4.915200e+02 9.202379e-01
1.183209e+02 2.261902e-01 6.467523e-02 2.082462e-01 5.529600e+02 9.199022e-01
1.183357e+02 2.404755e-01 6.088041e-02 2.471456e-01 7.372800e+02 9.199080e-01
1.183504e+02 4.405952e-01 5.731815e-02 4.465458e-01 7.372800e+02 9.198944e-01
1.183652e+02 6.422307e-01 5.467227e-02 6.263863e-01 7.987200e+02 9.196669e-01
1.183799e+02 7.037406e-01 5.266246e-02 6.640273e-01 7.987200e+02 9.192898e-01
1.183947e+02 6.863756e-01 5.103356e-02 6.489943e-01 7.987200e+02 9.190409e-01
1.184094e+02 7.466642e-01 5.006911e-02 7.231458e-01 7.987200e+02 9.192566e-01
1.184242e+02 7.812222e-01 4.925413e-02 7.265695e-01 7.987200e+02 9.201525e-01
1.184389e+02 6.561267e-01 4.854394e-02 6.085673e-01 7.987200e+02 9.217150e-01
1.184537e+02 4.925627e-01 4.804116e-02 4.580135e-01 7.987200e+02 9.237070e-01
1.184684e+02 5.640250e-01 4.737556e-02 5.584496e-01 7.987200e+02 9.257663e-01
1.184832e+02 7.545905e-01 4.705690e-02 7.360601e-01 7.987200e+02 9.275193e-01
1.184979e+02 7.571129e-01 4.660718e-02 7.144601e-01 7.987200e+02 9.286326e-01
1.185127e+02 6.310788e-01 4.641188e-02 5.927000e-01 7.987200e+02 9.287766e-01
1.185274e+02 5.850476e-01 4.611959e-02 5.667663e-01 7.987200e+02 9.275254e-01
1.185422e+02 6.557451e-01 4.589566e-02 6.434165e-01 7.987200e+02 9.242792e-01
1.185569e+02 7.875453e-01 4.578925e-02 7.652966e-01 7.987200e+02 9.183210e-01
1.185717e+02 8.778568e-01 4.582417e-02 8.243552e-01 7.987200e+02 9.090588e-01
1.185864e+02 9.119450e-01 4.612214e-02 8.460865e-01 7.987200e+02 8.964269e-01
1.186012e+02 8.925342e-01 4.685402e-02 8.130027e-01 7.987200e+02 8.813002e-01
1.186159e+02 8.023183e-01 4.753925e-02 7.005899e-01 7.987200e+02 8.656484e-01
1.186307e+02 6.620545e-01 4.843636e-02 5.673669e-01 7.987200e+02 8.522187e-01
1.186454e+02 6.219082e-01 4.892161e-02 5.466065e-01 7.987200e+02 8.437356e-01
1.186602e+02 6.298601e-01 4.931421e-02 5.397617e-01 7.987200e+02 8.418671e-01
1.186749e+02 5.538477e-01 4.917991e-02 4.788960e-01 7.987200e+02 8.464715e-01
1.186897e+02 4.897144e-01 4.897475e-02 4.260217e-01 7.987200e+02 8.554930e-01
1.187044e+02 5.093975e-01 4.871113e-02 4.618804e-01 7.987200e+02 8.656301e-01
1.187192e+02 5.922869e-01 4.873561e-02 5.487885e-01 7.987200e+02 8.735366e-01
1.187339e+02 6.809507e-01 4.885454e-02 6.326540e-01 7.987200e+02 8.770138e-01
1.187487e+02 7.470697e-01 4.936241e-02 6.719643e-01 7.987200e+02 8.757619e-01
1.187634e+02 7.392797e-01 5.020382e-02 6.726000e-01 7.987200e+02 8.713829e-01
1.187782e+02 8.298079e-01 5.087480e-02 7.646174e-01 7.987200e+02 8.666961e-01
1.187929e+02 9.026910e-01 5.208124e-02 8.063689e-01 7.987200e+02 8.646390e-01
1.188077e+02 7.620517e-01 5.333082e-02 6.566482e-01 7.987200e+02 8.671947e-01
1.188224e+02 5.144801e-01 5.497830e-02 4.520449e-01 7.372800e+02 8.747751e-01
1.188372e+02 3.958555e-01 5.708965e-02 3.576891e-01 7.372800e+02 8.862484e-01
1.188519e+02 4.396684e-01 5.933502e-02 4.258724e-01 5.529600e+02 8.995420e-01
1.188667e+02 5.855004e-01 6.213560e-02 5.772946e-01 5.529600e+02 9.124584e-01
1.188814e+02 7.739237e-01 6.552586e-02 7.657330e-01 4.915200e+02 9.233305e-01
1.188962e+02 9.948372e-01 6.978170e-02 9.746891e-01 4.915200e+02 9.312886e-01
1.189109e+02 1.051287e+00 7.603326e-02 1.030272e+00 3.072000e+02 9.361384e-01
1.189257e+02 8.476521e-01 8.433867e-02 7.629460e-01 3.072000e+02 9.380481e-01
1.189404e+02 2.441965e-01 9.701130e-02 1.341522e-01 2.457600e+02 9.372339e-01
1.189552e+02 -6.445597e-01 1.171752e-01 -7.741606e-01 2.457600e+02 9.338203e-01
1.189699e+02        nan 0.000000e+00 0.000000e+00 6.144000e+01 9.279263e-01
