# Object name: IRAS_07069-1045
# Instrument: FIFI-LS
# z: 0.00005500
# Ref. Wav.: 118.58100000
# Area aperture: 0.00000 degs
"wavelength","flux","eflux","uflux","exposure","atran"
1.182029e+02        nan 0.000000e+00 0.000000e+00 1.228800e+02 9.375452e-01
1.182177e+02        nan 0.000000e+00 0.000000e+00 1.228800e+02 9.350714e-01
1.182324e+02 7.426124e-01 1.107299e-01 6.757156e-01 3.379200e+02 9.321246e-01
1.182472e+02 4.581177e-01 9.151262e-02 4.380948e-01 3.379200e+02 9.289193e-01
1.182619e+02 3.636546e-01 7.953403e-02 3.520249e-01 4.300800e+02 9.257978e-01
1.182767e+02 4.310739e-01 7.154557e-02 4.262274e-01 4.300800e+02 9.231461e-01
1.182914e+02 5.674128e-01 6.492190e-02 5.535472e-01 6.451200e+02 9.212635e-01
1.183062e+02 7.793329e-01 6.020818e-02 7.577600e-01 6.451200e+02 9.202379e-01
1.183209e+02 8.416925e-01 5.561711e-02 7.933056e-01 7.680000e+02 9.199022e-01
1.183357e+02 7.938470e-01 5.214522e-02 7.347587e-01 9.830400e+02 9.199080e-01
1.183504e+02 6.985062e-01 4.915828e-02 6.588749e-01 9.830400e+02 9.198944e-01
1.183652e+02 6.874100e-01 4.691363e-02 6.534239e-01 1.105920e+03 9.196669e-01
1.183799e+02 7.482087e-01 4.508151e-02 7.110822e-01 1.105920e+03 9.192898e-01
1.183947e+02 7.606522e-01 4.385754e-02 7.236637e-01 1.105920e+03 9.190409e-01
1.184094e+02 7.745557e-01 4.290908e-02 7.313335e-01 1.105920e+03 9.192566e-01
1.184242e+02 7.562712e-01 4.219072e-02 7.181329e-01 1.105920e+03 9.201525e-01
1.184389e+02 7.687078e-01 4.158582e-02 7.385118e-01 1.105920e+03 9.217150e-01
1.184537e+02 7.566897e-01 4.099705e-02 7.207624e-01 1.105920e+03 9.237070e-01
1.184684e+02 7.448212e-01 4.043093e-02 7.103291e-01 1.105920e+03 9.257663e-01
1.184832e+02 7.399802e-01 3.999866e-02 7.099007e-01 1.105920e+03 9.275193e-01
1.184979e+02 7.810403e-01 3.950414e-02 7.567497e-01 1.105920e+03 9.286326e-01
1.185127e+02 8.709109e-01 3.923053e-02 8.468995e-01 1.105920e+03 9.287766e-01
1.185274e+02 9.157981e-01 3.886983e-02 8.794803e-01 1.105920e+03 9.275254e-01
1.185422e+02 9.164158e-01 3.871268e-02 8.740799e-01 1.105920e+03 9.242792e-01
1.185569e+02 8.953232e-01 3.857058e-02 8.462373e-01 1.105920e+03 9.183210e-01
1.185717e+02 8.711925e-01 3.877111e-02 8.207517e-01 1.105920e+03 9.090588e-01
1.185864e+02 8.580356e-01 3.912771e-02 7.985614e-01 1.105920e+03 8.964269e-01
1.186012e+02 8.684067e-01 3.974193e-02 7.936221e-01 1.105920e+03 8.813002e-01
1.186159e+02 9.137879e-01 4.043609e-02 8.268633e-01 1.105920e+03 8.656484e-01
1.186307e+02 9.681691e-01 4.110644e-02 8.545745e-01 1.105920e+03 8.522187e-01
1.186454e+02 9.533138e-01 4.151427e-02 8.283965e-01 1.105920e+03 8.437356e-01
1.186602e+02 8.718501e-01 4.191375e-02 7.531820e-01 1.105920e+03 8.418671e-01
1.186749e+02 8.406150e-01 4.177891e-02 7.339576e-01 1.105920e+03 8.464715e-01
1.186897e+02 9.080870e-01 4.177207e-02 8.107580e-01 1.105920e+03 8.554930e-01
1.187044e+02 9.695661e-01 4.169658e-02 8.720364e-01 1.105920e+03 8.656301e-01
1.187192e+02 9.619013e-01 4.171528e-02 8.570752e-01 1.105920e+03 8.735366e-01
1.187339e+02 8.229270e-01 4.210279e-02 7.273569e-01 1.105920e+03 8.770138e-01
1.187487e+02 6.786143e-01 4.247899e-02 6.031815e-01 1.105920e+03 8.757619e-01
1.187634e+02 6.109873e-01 4.330796e-02 5.489581e-01 1.105920e+03 8.713829e-01
1.187782e+02 5.995047e-01 4.411420e-02 5.335792e-01 1.105920e+03 8.666961e-01
1.187929e+02 5.748487e-01 4.526068e-02 5.205741e-01 1.105920e+03 8.646390e-01
1.188077e+02 5.766896e-01 4.644101e-02 5.192170e-01 1.105920e+03 8.671947e-01
1.188224e+02 6.285684e-01 4.800842e-02 5.781652e-01 9.830400e+02 8.747751e-01
1.188372e+02 7.284135e-01 4.987138e-02 6.738978e-01 9.830400e+02 8.862484e-01
1.188519e+02 7.708030e-01 5.210830e-02 7.214000e-01 7.680000e+02 8.995420e-01
1.188667e+02 8.059227e-01 5.453274e-02 7.663566e-01 7.680000e+02 9.124584e-01
1.188814e+02 8.701173e-01 5.784547e-02 8.434370e-01 6.758400e+02 9.233305e-01
1.188962e+02 9.870509e-01 6.171998e-02 9.552138e-01 6.758400e+02 9.312886e-01
1.189109e+02 9.699458e-01 6.737264e-02 9.148416e-01 4.608000e+02 9.361384e-01
1.189257e+02 7.397034e-01 7.493944e-02 6.869273e-01 4.608000e+02 9.380481e-01
1.189404e+02 4.528818e-01 8.718890e-02 4.071051e-01 3.379200e+02 9.372339e-01
1.189552e+02 3.448801e-01 1.053919e-01 3.290085e-01 3.379200e+02 9.338203e-01
1.189699e+02        nan 0.000000e+00 0.000000e+00 1.228800e+02 9.279263e-01
