# Object name: IRAS_07069-1045
# Instrument: FIFI-LS
# z: 0.00005500
# Ref. Wav.: 118.58100000
# Area aperture: 0.00000 degs
"wavelength","flux","eflux","uflux","exposure","atran"
1.182029e+02        nan 0.000000e+00 0.000000e+00 9.216000e+01 9.375452e-01
1.182177e+02        nan 0.000000e+00 0.000000e+00 9.216000e+01 9.350714e-01
1.182324e+02 3.703991e-01 1.244261e-01 2.880337e-01 2.457600e+02 9.321246e-01
1.182472e+02 -1.491579e-01 1.020665e-01 -1.706583e-01 2.457600e+02 9.289193e-01
1.182619e+02 -2.788571e-01 8.901781e-02 -2.628204e-01 3.072000e+02 9.257978e-01
1.182767e+02 -1.361915e-01 7.984128e-02 -1.058301e-01 3.072000e+02 9.231461e-01
1.182914e+02 1.764026e-01 7.222883e-02 2.089990e-01 4.608000e+02 9.212635e-01
1.183062e+02 4.945781e-01 6.722375e-02 4.867822e-01 4.608000e+02 9.202379e-01
1.183209e+02 5.443246e-01 6.173156e-02 5.143341e-01 5.529600e+02 9.199022e-01
1.183357e+02 3.913067e-01 5.803625e-02 3.497788e-01 7.065600e+02 9.199080e-01
1.183504e+02 2.270985e-01 5.470338e-02 2.074667e-01 7.065600e+02 9.198944e-01
1.183652e+02 1.921618e-01 5.215373e-02 1.867695e-01 7.987200e+02 9.196669e-01
1.183799e+02 1.881479e-01 5.031546e-02 1.701283e-01 7.987200e+02 9.192898e-01
1.183947e+02 1.380496e-01 4.881012e-02 1.234800e-01 7.987200e+02 9.190409e-01
1.184094e+02 1.068204e-01 4.779568e-02 1.019334e-01 7.987200e+02 9.192566e-01
1.184242e+02 1.644349e-01 4.699573e-02 1.641116e-01 7.987200e+02 9.201525e-01
1.184389e+02 2.504683e-01 4.630092e-02 2.433962e-01 7.987200e+02 9.217150e-01
1.184537e+02 2.480232e-01 4.563193e-02 2.279659e-01 7.987200e+02 9.237070e-01
1.184684e+02 1.996889e-01 4.504951e-02 1.908857e-01 7.987200e+02 9.257663e-01
1.184832e+02 1.843329e-01 4.451664e-02 1.818123e-01 7.987200e+02 9.275193e-01
1.184979e+02 2.607452e-01 4.403592e-02 2.637227e-01 7.987200e+02 9.286326e-01
1.185127e+02 3.585580e-01 4.370445e-02 3.563000e-01 7.987200e+02 9.287766e-01
1.185274e+02 4.099380e-01 4.331778e-02 3.963607e-01 7.987200e+02 9.275254e-01
1.185422e+02 4.148661e-01 4.317361e-02 3.869811e-01 7.987200e+02 9.242792e-01
1.185569e+02 3.920683e-01 4.290689e-02 3.753679e-01 7.987200e+02 9.183210e-01
1.185717e+02 3.944476e-01 4.324005e-02 3.711791e-01 7.987200e+02 9.090588e-01
1.185864e+02 3.718930e-01 4.362247e-02 3.358599e-01 7.987200e+02 8.964269e-01
1.186012e+02 2.839595e-01 4.424744e-02 2.555360e-01 7.987200e+02 8.813002e-01
1.186159e+02 2.491094e-01 4.512691e-02 2.270273e-01 7.987200e+02 8.656484e-01
1.186307e+02 3.183282e-01 4.579940e-02 2.908092e-01 7.987200e+02 8.522187e-01
1.186454e+02 3.838703e-01 4.631380e-02 3.368590e-01 7.987200e+02 8.437356e-01
1.186602e+02 3.661803e-01 4.662823e-02 3.142546e-01 7.987200e+02 8.418671e-01
1.186749e+02 3.343008e-01 4.651522e-02 2.879146e-01 7.987200e+02 8.464715e-01
1.186897e+02 3.844783e-01 4.649751e-02 3.457012e-01 7.987200e+02 8.554930e-01
1.187044e+02 4.761436e-01 4.630905e-02 4.384537e-01 7.987200e+02 8.656301e-01
1.187192e+02 5.065149e-01 4.638646e-02 4.469802e-01 7.987200e+02 8.735366e-01
1.187339e+02 3.812801e-01 4.679101e-02 3.298523e-01 7.987200e+02 8.770138e-01
1.187487e+02 2.787114e-01 4.725874e-02 2.519766e-01 7.987200e+02 8.757619e-01
1.187634e+02 2.698177e-01 4.818405e-02 2.514084e-01 7.987200e+02 8.713829e-01
1.187782e+02 2.657377e-01 4.911437e-02 2.294897e-01 7.987200e+02 8.666961e-01
1.187929e+02 1.729129e-01 5.037537e-02 1.462608e-01 7.987200e+02 8.646390e-01
1.188077e+02 8.532225e-02 5.178217e-02 7.664185e-02 7.987200e+02 8.671947e-01
1.188224e+02 1.456618e-01 5.350743e-02 1.434190e-01 7.065600e+02 8.747751e-01
1.188372e+02 2.835599e-01 5.560963e-02 2.679938e-01 7.065600e+02 8.862484e-01
1.188519e+02 3.499399e-01 5.782664e-02 3.359113e-01 5.529600e+02 8.995420e-01
1.188667e+02 4.301210e-01 6.054347e-02 4.181731e-01 5.529600e+02 9.124584e-01
1.188814e+02 5.614670e-01 6.408568e-02 5.536622e-01 4.915200e+02 9.233305e-01
1.188962e+02 6.310848e-01 6.827884e-02 6.040948e-01 4.915200e+02 9.312886e-01
1.189109e+02 4.389372e-01 7.450671e-02 3.824593e-01 3.379200e+02 9.361384e-01
1.189257e+02 -2.636824e-02 8.324487e-02 -8.814565e-02 3.379200e+02 9.380481e-01
1.189404e+02 -4.436146e-01 9.670144e-02 -4.443523e-01 2.457600e+02 9.372339e-01
1.189552e+02 -3.616971e-01 1.176649e-01 0.000000e+00 2.457600e+02 9.338203e-01
1.189699e+02        nan 0.000000e+00 0.000000e+00 9.216000e+01 9.279263e-01
