# Object name: IRAS_07069-1045
# Instrument: FIFI-LS
# z: 0.00005500
# Ref. Wav.: 157.74100000
# Area aperture: 0.00000 degs
"wavelength","flux","eflux","uflux","exposure","atran"
1.572608e+02        nan 0.000000e+00 0.000000e+00 4.915200e+02 8.178067e-01
1.572775e+02 6.488750e+00 1.629633e-01 5.564710e+00 4.915200e+02 8.210241e-01
1.572942e+02 6.566083e+00 1.352403e-01 5.659943e+00 4.915200e+02 8.247742e-01
1.573109e+02 6.689945e+00 1.179100e-01 5.769720e+00 4.915200e+02 8.290879e-01
1.573276e+02 6.692441e+00 1.053746e-01 5.825933e+00 4.915200e+02 8.338333e-01
1.573443e+02 6.823198e+00 9.573386e-02 5.995721e+00 4.915200e+02 8.387640e-01
1.573611e+02 6.963925e+00 8.838799e-02 6.123455e+00 4.915200e+02 8.435933e-01
1.573778e+02 6.833816e+00 8.279511e-02 5.985748e+00 9.830400e+02 8.480554e-01
1.573945e+02 6.427349e+00 7.807951e-02 5.663761e+00 9.830400e+02 8.519308e-01
1.574112e+02 6.177391e+00 7.413561e-02 5.474802e+00 9.830400e+02 8.550221e-01
1.574279e+02 6.007794e+00 7.127422e-02 5.352878e+00 9.830400e+02 8.570908e-01
1.574446e+02 5.958822e+00 6.927894e-02 5.320579e+00 9.830400e+02 8.577530e-01
1.574613e+02 5.996929e+00 6.824017e-02 5.341460e+00 9.830400e+02 8.563703e-01
1.574780e+02 6.021708e+00 6.799164e-02 5.335119e+00 9.830400e+02 8.520353e-01
1.574947e+02 6.047395e+00 6.840548e-02 5.305228e+00 9.830400e+02 8.436652e-01
1.575115e+02 6.090764e+00 6.943833e-02 5.261383e+00 9.830400e+02 8.303133e-01
1.575282e+02 6.139339e+00 7.071282e-02 5.187464e+00 9.830400e+02 8.116956e-01
1.575449e+02 6.189739e+00 7.252517e-02 5.097179e+00 9.830400e+02 7.888347e-01
1.575616e+02 6.274373e+00 7.459980e-02 5.023254e+00 9.830400e+02 7.643592e-01
1.575783e+02 6.381142e+00 7.651102e-02 4.980421e+00 9.830400e+02 7.422949e-01
1.575950e+02 6.415483e+00 7.781180e-02 4.899345e+00 9.830400e+02 7.271821e-01
1.576117e+02 6.368099e+00 7.841712e-02 4.838242e+00 9.830400e+02 7.225866e-01
1.576284e+02 6.418155e+00 7.802063e-02 4.931554e+00 9.830400e+02 7.299152e-01
1.576451e+02 6.542633e+00 7.680797e-02 5.115117e+00 9.830400e+02 7.479367e-01
1.576619e+02 6.375357e+00 7.528551e-02 5.096308e+00 9.830400e+02 7.730751e-01
1.576786e+02 5.967241e+00 7.333335e-02 4.928100e+00 9.830400e+02 8.008247e-01
1.576953e+02 5.811792e+00 7.145681e-02 4.987492e+00 9.830400e+02 8.270697e-01
1.577120e+02 5.886442e+00 6.986371e-02 5.178786e+00 9.830400e+02 8.490347e-01
1.577287e+02 5.830947e+00 6.867191e-02 5.224709e+00 9.830400e+02 8.655859e-01
1.577454e+02 5.808808e+00 6.772434e-02 5.303556e+00 9.830400e+02 8.768632e-01
1.577621e+02 6.041010e+00 6.736433e-02 5.596040e+00 9.830400e+02 8.837236e-01
1.577788e+02 6.288366e+00 6.705274e-02 5.799798e+00 9.830400e+02 8.872702e-01
1.577955e+02 6.197213e+00 6.702185e-02 5.678163e+00 9.830400e+02 8.885113e-01
1.578123e+02 5.809175e+00 6.700762e-02 5.320935e+00 9.830400e+02 8.882906e-01
1.578290e+02 5.528541e+00 6.701562e-02 5.096920e+00 9.830400e+02 8.873038e-01
1.578457e+02 5.494434e+00 6.699688e-02 5.059157e+00 9.830400e+02 8.861125e-01
1.578624e+02 5.487478e+00 6.718943e-02 5.048063e+00 9.830400e+02 8.851136e-01
1.578791e+02 5.456329e+00 6.708611e-02 5.028855e+00 9.830400e+02 8.844771e-01
1.578958e+02 5.414012e+00 6.702208e-02 4.967079e+00 9.830400e+02 8.840801e-01
1.579125e+02 5.365045e+00 6.711224e-02 4.932098e+00 9.830400e+02 8.835121e-01
1.579292e+02 5.350145e+00 6.727441e-02 4.913193e+00 9.830400e+02 8.821611e-01
1.579459e+02 5.304092e+00 6.762781e-02 4.835078e+00 9.830400e+02 8.794247e-01
1.579627e+02 5.168084e+00 6.770337e-02 4.703355e+00 9.830400e+02 8.749671e-01
1.579794e+02 5.237818e+00 6.792402e-02 4.782156e+00 9.830400e+02 8.689552e-01
1.579961e+02 5.443834e+00 6.789793e-02 4.925202e+00 9.830400e+02 8.621900e-01
1.580128e+02 5.579904e+00 6.769300e-02 4.991604e+00 9.830400e+02 8.559499e-01
1.580295e+02 5.595573e+00 6.775360e-02 4.992358e+00 9.830400e+02 8.516227e-01
1.580462e+02 5.690773e+00 6.799845e-02 5.075035e+00 9.830400e+02 8.501838e-01
1.580629e+02 5.809544e+00 6.878567e-02 5.185901e+00 9.830400e+02 8.517668e-01
1.580796e+02 5.916975e+00 7.049582e-02 5.293869e+00 9.830400e+02 8.555611e-01
1.580963e+02 5.937365e+00 7.305377e-02 5.329347e+00 9.830400e+02 8.599954e-01
1.581131e+02 5.876987e+00 7.641966e-02 5.260381e+00 9.830400e+02 8.632083e-01
1.581298e+02 5.665912e+00 8.045515e-02 5.068795e+00 9.830400e+02 8.635116e-01
1.581465e+02 5.676292e+00 8.584802e-02 5.112681e+00 4.915200e+02 8.597427e-01
1.581632e+02 6.024380e+00 9.234905e-02 5.396039e+00 4.915200e+02 8.514333e-01
1.581799e+02 6.224801e+00 1.012921e-01 5.414651e+00 4.915200e+02 8.388046e-01
1.581966e+02 5.725480e+00 1.137596e-01 4.775190e+00 4.915200e+02 8.227721e-01
1.582133e+02 5.031969e+00 1.320226e-01 4.194704e+00 4.915200e+02 8.048371e-01
1.582300e+02 5.467354e+00 1.617520e-01 4.639988e+00 4.915200e+02 7.869284e-01
1.582467e+02        nan 0.000000e+00 0.000000e+00 4.915200e+02 7.711251e-01
